Data from T1_Reflection__125__15-08-24-868.txt Node

Date: Thu Jun 03 15:08:24 CEST 2021
User: mabdelazizm
Spectrometer: FLMS18565
Trigger mode: 0
Integration Time (sec): 2.000000E0
Scans to average: 1
Electric dark correction enabled: true
Nonlinearity correction enabled: false
Boxcar width: 12
XAxis mode: Wavelengths
Number of Pixels in Spectrum: 2048
>>>>>Begin Spectral Data<<<<<
179.071	21.31
179.452	75.73
179.833	79.98
180.214	92.49
180.595	92.32
180.977	96.86
181.358	96.69
181.739	85.59
182.12	54.54
182.501	5.36
182.882	-9.48
183.262	-6.53
183.643	3.43
184.024	23.39
184.405	28.37
184.786	20.33
185.166	21.44
185.547	12.65
185.927	11.55
186.308	11.32
186.689	19.24
187.069	25.58
187.449	28.93
187.83	19.8
188.21	17.85
188.59	19.01
188.971	13.87
189.351	9.72
189.731	5.97
190.111	8.94
190.491	8.28
190.871	10.48
191.251	13.34
191.631	16.33
192.011	20.23
192.391	22.14
192.771	23.61
193.151	22
193.531	20.43
193.91	18.57
194.29	18.41
194.67	15.35
195.049	15.28
195.429	15.25
195.808	13.58
196.188	11.07
196.567	6.99
196.946	5.2
197.326	7.69
197.705	8.51
198.084	11.66
198.464	10.59
198.843	10.52
199.222	10.4
199.601	10.9
199.98	9.41
200.359	9.23
200.738	7.51
201.117	7.49
201.496	5.74
201.875	4.32
202.254	4.19
202.632	3.25
203.011	3.76
203.39	4.98
203.768	7.54
204.147	7.82
204.525	7.51
204.904	8.47
205.282	9.17
205.661	8.65
206.039	10.39
206.418	9.9
206.796	10.17
207.174	10.28
207.552	7.62
207.931	6.1
208.309	7.34
208.687	6.94
209.065	6.15
209.443	6.75
209.821	5.69
210.199	7.19
210.577	7.33
210.954	8.1
211.332	8.51
211.71	6.4
212.088	6.4
212.465	5.29
212.843	5.05
213.221	3.34
213.598	4.67
213.976	4.83
214.353	3.39
214.731	3.56
215.108	4.46
215.485	3.73
215.863	3.98
216.24	3.83
216.617	4.86
216.994	5.52
217.371	4.81
217.749	3.87
218.126	3.9
218.503	4.55
218.88	4.77
219.256	5.98
219.633	5.3
220.01	4.69
220.387	5.63
220.764	5.05
221.14	5.21
221.517	5.88
221.894	6.11
222.27	5.78
222.647	5.13
223.023	4.69
223.4	4.65
223.776	4.66
224.153	4.85
224.529	4.83
224.905	5.46
225.282	5.54
225.658	5.39
226.034	4.8
226.41	5
226.786	5.49
227.162	5.14
227.538	5.04
227.914	4.89
228.29	4.62
228.666	4.08
229.042	4
229.418	3.98
229.793	3.56
230.169	3.64
230.545	3.8
230.92	3.73
231.296	3.51
231.672	3.51
232.047	3.68
232.422	3.79
232.798	3.65
233.173	3.68
233.549	3.51
233.924	3.37
234.299	3.1
234.674	3.05
235.05	2.94
235.425	2.92
235.8	2.84
236.175	2.79
236.55	2.91
236.925	2.83
237.3	2.79
237.675	2.87
238.049	2.95
238.424	2.99
238.799	3.07
239.174	3.08
239.548	3.02
239.923	2.94
240.297	2.77
240.672	2.85
241.046	2.91
241.421	2.96
241.795	2.9
242.17	2.93
242.544	2.92
242.918	3.01
243.293	3.1
243.667	3.09
244.041	3.1
244.415	3.09
244.789	3.05
245.163	2.99
245.537	2.95
245.911	2.87
246.285	2.85
246.659	2.84
247.033	2.8
247.406	2.77
247.78	2.73
248.154	2.69
248.528	2.72
248.901	2.68
249.275	2.67
249.648	2.72
250.022	2.71
250.395	2.6
250.769	2.53
251.142	2.53
251.515	2.5
251.888	2.46
252.262	2.41
252.635	2.32
253.008	2.32
253.381	2.31
253.754	2.36
254.127	2.39
254.5	2.37
254.873	2.4
255.246	2.48
255.619	2.5
255.992	2.5
256.364	2.47
256.737	2.43
257.11	2.42
257.483	2.42
257.855	2.43
258.228	2.49
258.6	2.5
258.973	2.46
259.345	2.41
259.718	2.39
260.09	2.37
260.462	2.37
260.834	2.37
261.207	2.37
261.579	2.39
261.951	2.38
262.323	2.33
262.695	2.31
263.067	2.25
263.439	2.23
263.811	2.23
264.183	2.18
264.555	2.17
264.927	2.15
265.298	2.08
265.67	2.09
266.042	2.09
266.413	2.05
266.785	2.05
267.156	1.99
267.528	1.96
267.899	1.95
268.271	2
268.642	2
269.013	2.02
269.385	2.02
269.756	1.97
270.127	1.94
270.498	1.9
270.87	1.85
271.241	1.84
271.612	1.87
271.983	1.86
272.354	1.86
272.724	1.85
273.095	1.82
273.466	1.83
273.837	1.76
274.208	1.78
274.578	1.8
274.949	1.82
275.32	1.84
275.69	1.86
276.061	1.8
276.431	1.79
276.802	1.8
277.172	1.76
277.542	1.74
277.913	1.74
278.283	1.69
278.653	1.68
279.023	1.73
279.394	1.73
279.764	1.72
280.134	1.68
280.504	1.64
280.874	1.62
281.244	1.62
281.614	1.56
281.983	1.53
282.353	1.55
282.723	1.54
283.093	1.59
283.462	1.5
283.832	1.54
284.202	1.53
284.571	1.47
284.941	1.49
285.31	1.51
285.68	1.49
286.049	1.47
286.418	1.4
286.788	1.42
287.157	1.37
287.526	1.43
287.895	1.4
288.264	1.42
288.633	1.41
289.002	1.43
289.371	1.47
289.74	1.48
290.109	1.48
290.478	1.48
290.847	1.49
291.216	1.49
291.585	1.44
291.953	1.4
292.322	1.35
292.691	1.42
293.059	1.34
293.428	1.26
293.796	1.27
294.165	1.23
294.533	1.21
294.901	1.21
295.27	1.2
295.638	1.26
296.006	1.17
296.374	1.18
296.743	1.13
297.111	1.1
297.479	1.04
297.847	1.02
298.215	0.91
298.583	0.89
298.95	0.9
299.318	0.91
299.686	0.88
300.054	0.94
300.422	0.94
300.789	0.96
301.157	0.97
301.525	1
301.892	0.94
302.26	0.94
302.627	0.98
302.994	0.96
303.362	0.97
303.729	0.95
304.097	0.91
304.464	0.89
304.831	0.89
305.198	0.91
305.565	0.93
305.932	0.96
306.299	1
306.666	0.99
307.033	1
307.4	1.12
307.767	1.1
308.134	1.07
308.501	1.05
308.867	1.05
309.234	0.99
309.601	0.99
309.967	0.96
310.334	0.95
310.701	0.88
311.067	0.84
311.433	0.88
311.8	0.86
312.166	0.88
312.533	0.9
312.899	0.95
313.265	0.98
313.631	0.95
313.997	0.95
314.363	1
314.729	1.03
315.096	0.97
315.461	0.97
315.827	1.02
316.193	1.08
316.559	1.03
316.925	1.05
317.291	1.03
317.656	1.01
318.022	1.03
318.388	1.07
318.753	1.02
319.119	1.04
319.484	1.06
319.85	1.07
320.215	1.13
320.581	1.13
320.946	1.16
321.311	1.18
321.676	1.19
322.042	1.15
322.407	1.15
322.772	1.2
323.137	1.22
323.502	1.18
323.867	1.1
324.232	1.16
324.597	1.18
324.962	1.1
325.327	1.01
325.691	1.11
326.056	1.11
326.421	1.16
326.785	1.16
327.15	1.13
327.514	1.04
327.879	1.11
328.243	1.11
328.608	1.11
328.972	1.19
329.337	1.21
329.701	1.23
330.065	1.22
330.429	1.2
330.794	1.17
331.158	1.17
331.522	1.12
331.886	1.1
332.25	1.06
332.614	1.07
332.978	1.08
333.342	1.04
333.705	0.97
334.069	0.96
334.433	0.98
334.797	0.87
335.16	0.84
335.524	0.85
335.887	0.83
336.251	0.8
336.614	0.84
336.978	0.76
337.341	0.74
337.705	0.72
338.068	0.8
338.431	0.71
338.794	0.71
339.158	0.66
339.521	0.67
339.884	0.67
340.247	0.73
340.61	0.71
340.973	0.72
341.336	0.75
341.699	0.72
342.062	0.73
342.424	0.68
342.787	0.73
343.15	0.71
343.512	0.69
343.875	0.66
344.238	0.64
344.6	0.68
344.963	0.72
345.325	0.79
345.688	0.75
346.05	0.77
346.412	0.8
346.775	0.78
347.137	0.64
347.499	0.72
347.861	0.69
348.223	0.67
348.585	0.61
348.947	0.58
349.309	0.49
349.671	0.54
350.033	0.55
350.395	0.52
350.757	0.6
351.118	0.64
351.48	0.77
351.842	0.7
352.203	0.75
352.565	0.8
352.927	0.87
353.288	0.9
353.65	0.86
354.011	0.86
354.372	0.84
354.734	0.9
355.095	0.93
355.456	0.95
355.817	0.88
356.179	0.89
356.54	0.9
356.901	0.88
357.262	0.91
357.623	0.96
357.984	1.03
358.345	1.12
358.705	1.11
359.066	1.1
359.427	1.13
359.788	1.04
360.148	1.02
360.509	0.93
360.87	0.99
361.23	0.93
361.591	0.93
361.951	0.91
362.312	0.95
362.672	0.92
363.032	0.99
363.393	1
363.753	1.03
364.113	1
364.473	0.94
364.833	1.07
365.193	1.04
365.553	1.02
365.913	1.04
366.273	1.03
366.633	1.04
366.993	0.95
367.353	0.87
367.713	0.84
368.072	0.87
368.432	0.86
368.792	0.84
369.151	0.84
369.511	0.85
369.87	0.9
370.23	0.97
370.589	0.97
370.949	0.96
371.308	0.93
371.667	0.95
372.027	0.88
372.386	0.91
372.745	0.87
373.104	0.92
373.463	0.95
373.822	0.88
374.181	0.87
374.54	0.89
374.899	0.92
375.258	0.91
375.617	0.9
375.975	0.98
376.334	1.06
376.693	1.15
377.052	1.17
377.41	1.21
377.769	1.3
378.127	1.31
378.486	1.4
378.844	1.34
379.202	1.36
379.561	1.4
379.919	1.44
380.277	1.46
380.636	1.54
380.994	1.57
381.352	1.6
381.71	1.68
382.068	1.73
382.426	1.78
382.784	1.93
383.142	2.04
383.5	2.11
383.857	2.25
384.215	2.41
384.573	2.5
384.931	2.59
385.288	2.61
385.646	2.69
386.003	2.68
386.361	2.75
386.718	2.9
387.076	3.04
387.433	3.16
387.791	3.3
388.148	3.52
388.505	3.63
388.862	3.71
389.22	3.93
389.577	4.04
389.934	4.23
390.291	4.42
390.648	4.61
391.005	4.82
391.362	5
391.718	5.13
392.075	5.38
392.432	5.57
392.789	5.7
393.145	5.92
393.502	6.19
393.859	6.43
394.215	6.72
394.572	6.98
394.928	7.32
395.285	7.63
395.641	7.9
395.997	8.28
396.354	8.54
396.71	8.91
397.066	9.23
397.422	9.55
397.778	9.96
398.134	10.34
398.491	10.81
398.846	11.21
399.202	11.58
399.558	11.96
399.914	12.36
400.27	12.84
400.626	13.31
400.981	13.72
401.337	14.17
401.693	14.71
402.048	15.15
402.404	15.57
402.759	15.97
403.115	16.47
403.47	16.98
403.826	17.52
404.181	17.97
404.536	18.42
404.892	18.8
405.247	19.29
405.602	19.81
405.957	20.32
406.312	20.75
406.667	21.25
407.022	21.62
407.377	22.04
407.732	22.52
408.087	23.01
408.442	23.53
408.796	24.03
409.151	24.47
409.506	25
409.86	25.55
410.215	26.15
410.57	26.6
410.924	27.08
411.279	27.51
411.633	28.05
411.987	28.52
412.342	28.91
412.696	29.34
413.05	29.86
413.404	30.2
413.758	30.75
414.113	31.21
414.467	31.52
414.821	31.77
415.175	32.33
415.529	32.74
415.882	33.23
416.236	33.5
416.59	33.86
416.944	34.21
417.298	34.61
417.651	34.97
418.005	35.33
418.358	35.6
418.712	35.89
419.065	36.09
419.419	36.22
419.772	36.52
420.126	36.82
420.479	37.02
420.832	37.22
421.185	37.5
421.539	37.71
421.892	37.92
422.245	38.12
422.598	38.17
422.951	38.36
423.304	38.63
423.657	38.95
424.01	39.17
424.363	39.42
424.715	39.58
425.068	39.94
425.421	40.16
425.773	40.37
426.126	40.6
426.479	40.71
426.831	40.87
427.184	41.02
427.536	41.05
427.889	41.13
428.241	41.32
428.593	41.39
428.945	41.52
429.298	41.74
429.65	42
430.002	42.17
430.354	42.3
430.706	42.44
431.058	42.55
431.41	42.8
431.762	43
432.114	43.18
432.466	43.19
432.817	43.2
433.169	43.3
433.521	43.44
433.872	43.5
434.224	43.53
434.576	43.64
434.927	43.69
435.279	43.76
435.63	43.88
435.981	44.01
436.333	44.24
436.684	44.29
437.035	44.4
437.387	44.46
437.738	44.51
438.089	44.52
438.44	44.54
438.791	44.61
439.142	44.64
439.493	44.63
439.844	44.68
440.195	44.58
440.545	44.59
440.896	44.65
441.247	44.83
441.598	44.98
441.948	45.08
442.299	45.16
442.649	45.14
443	45.16
443.35	45.18
443.701	45.15
444.051	45.18
444.401	45.14
444.752	45.17
445.102	45.1
445.452	45.26
445.802	45.35
446.152	45.37
446.502	45.53
446.852	45.66
447.202	45.57
447.552	45.53
447.902	45.67
448.252	45.78
448.602	46.38
448.952	46.59
449.301	46.51
449.651	46.66
450.001	46.57
450.35	46.56
450.7	46.49
451.049	46.41
451.399	46.46
451.748	46.61
452.097	46.69
452.447	46.68
452.796	46.83
453.145	46.91
453.494	46.84
453.843	46.98
454.193	47.06
454.542	47.09
454.891	47.24
455.239	47.12
455.588	47.06
455.937	47.15
456.286	47.22
456.635	47.21
456.984	47.15
457.332	46.67
457.681	46.64
458.03	46.72
458.378	46.46
458.727	46.53
459.075	46.54
459.423	46.65
459.772	46.72
460.12	46.69
460.468	46.52
460.817	46.46
461.165	46.49
461.513	46.44
461.861	46.36
462.209	46.27
462.557	46.1
462.905	45.85
463.253	45.81
463.601	45.78
463.949	45.8
464.297	45.73
464.644	45.76
464.992	45.7
465.34	45.78
465.687	45.86
466.035	45.68
466.383	45.65
466.73	45.62
467.078	45.71
467.425	45.59
467.772	45.53
468.12	45.29
468.467	45.17
468.814	45.27
469.161	45.19
469.508	45.15
469.856	45.1
470.203	44.89
470.55	44.89
470.897	44.88
471.243	44.92
471.59	44.94
471.937	44.82
472.284	44.68
472.631	44.5
472.977	44.46
473.324	44.4
473.671	44.24
474.017	43.96
474.364	43.75
474.71	43.72
475.057	43.57
475.403	43.44
475.749	43.28
476.096	43.21
476.442	43.05
476.788	43.09
477.134	43.04
477.48	42.77
477.826	42.7
478.172	42.62
478.518	42.48
478.864	42.41
479.21	42.36
479.556	42.34
479.902	42.13
480.248	42.05
480.593	41.93
480.939	41.84
481.285	41.75
481.63	41.58
481.976	41.41
482.321	41.26
482.667	41.28
483.012	41.23
483.357	41.16
483.703	41.11
484.048	41.06
484.393	40.91
484.738	40.89
485.084	40.78
485.429	40.68
485.774	40.54
486.119	40.55
486.464	40.47
486.808	40.33
487.153	40.29
487.498	40.2
487.843	40.01
488.188	39.88
488.532	39.82
488.877	39.61
489.222	39.58
489.566	39.44
489.911	39.39
490.255	39.33
490.6	39.28
490.944	39.19
491.288	38.91
491.633	38.78
491.977	38.7
492.321	38.61
492.665	38.39
493.009	38.34
493.353	38.19
493.697	38.13
494.041	38.05
494.385	38.05
494.729	37.96
495.073	37.9
495.417	37.76
495.76	37.65
496.104	37.54
496.448	37.49
496.791	37.37
497.135	37.27
497.479	37.18
497.822	37.02
498.165	36.88
498.509	36.82
498.852	36.68
499.196	36.5
499.539	36.45
499.882	36.47
500.225	36.36
500.568	36.24
500.911	36.14
501.254	36.1
501.597	36.05
501.94	35.9
502.283	35.82
502.626	35.71
502.969	35.62
503.312	35.55
503.654	35.43
503.997	35.37
504.34	35.2
504.682	35.12
505.025	35.01
505.367	34.84
505.71	34.75
506.052	34.69
506.395	34.62
506.737	34.62
507.079	34.45
507.421	34.34
507.764	34.19
508.106	34.07
508.448	33.94
508.79	33.87
509.132	33.77
509.474	33.66
509.816	33.51
510.158	33.39
510.499	33.38
510.841	33.26
511.183	33.05
511.525	32.97
511.866	32.8
512.208	32.66
512.549	32.53
512.891	32.4
513.232	32.38
513.574	32.33
513.915	32.41
514.256	32.3
514.598	32.25
514.939	32.21
515.28	32.06
515.621	32.01
515.962	31.96
516.303	31.97
516.644	31.89
516.985	31.8
517.326	31.67
517.667	31.66
518.008	31.61
518.349	31.66
518.69	31.54
519.03	31.37
519.371	31.25
519.712	31.25
520.052	30.99
520.393	30.85
520.733	30.77
521.074	30.79
521.414	30.8
521.754	30.63
522.095	30.5
522.435	30.41
522.775	30.34
523.115	30.26
523.455	30.05
523.795	30.08
524.135	29.99
524.475	29.89
524.815	29.74
525.155	29.7
525.495	29.66
525.835	29.62
526.175	29.38
526.514	29.27
526.854	29.1
527.194	29.09
527.533	29.01
527.873	28.94
528.212	28.79
528.552	28.81
528.891	28.8
529.23	28.8
529.57	28.66
529.909	28.48
530.248	28.35
530.587	28.27
530.927	28.06
531.266	27.9
531.605	27.71
531.944	27.56
532.283	27.35
532.621	27.26
532.96	27.2
533.299	27.11
533.638	27.06
533.977	26.96
534.315	26.95
534.654	26.83
534.992	26.72
535.331	26.66
535.67	26.46
536.008	26.43
536.346	26.48
536.685	26.43
537.023	26.35
537.361	26.15
537.7	26
538.038	25.93
538.376	25.89
538.714	25.86
539.052	25.72
539.39	25.71
539.728	25.63
540.066	25.55
540.404	25.59
540.741	25.46
541.079	25.4
541.417	25.23
541.755	25.15
542.092	25.01
542.43	24.89
542.767	24.74
543.105	24.71
543.442	24.73
543.78	24.68
544.117	24.72
544.454	24.67
544.792	24.51
545.129	24.52
545.466	24.48
545.803	24.58
546.14	24.53
546.477	24.44
546.814	24.38
547.151	24.37
547.488	24.33
547.825	24.24
548.162	24.25
548.499	24.23
548.835	24.15
549.172	24.17
549.509	24.26
549.845	24.21
550.182	24.38
550.518	24.27
550.855	24.21
551.191	24.23
551.528	24.31
551.864	24.28
552.2	24.26
552.537	24.22
552.873	24.17
553.209	24.15
553.545	24.01
553.881	23.92
554.217	23.79
554.553	23.82
554.889	23.81
555.225	23.96
555.561	23.79
555.896	23.7
556.232	23.67
556.568	23.77
556.903	23.79
557.239	23.63
557.575	23.69
557.91	23.56
558.245	23.74
558.581	23.61
558.916	23.72
559.252	23.93
559.587	23.87
559.922	23.86
560.257	23.81
560.592	23.86
560.928	23.87
561.263	23.96
561.598	23.95
561.933	24.03
562.267	24.38
562.602	24.46
562.937	24.54
563.272	24.67
563.607	24.56
563.941	24.77
564.276	24.98
564.611	25.07
564.945	25.1
565.28	25.09
565.614	25.33
565.949	25.44
566.283	25.49
566.617	25.62
566.951	25.63
567.286	25.63
567.62	25.5
567.954	25.54
568.288	25.61
568.622	25.52
568.956	25.43
569.29	25.41
569.624	25.36
569.958	25.48
570.292	25.53
570.626	25.44
570.959	25.51
571.293	25.54
571.627	25.6
571.96	25.72
572.294	25.7
572.627	25.71
572.961	25.73
573.294	25.61
573.627	25.67
573.961	25.69
574.294	25.68
574.627	25.78
574.961	25.77
575.294	25.84
575.627	25.85
575.96	25.91
576.293	25.94
576.626	25.9
576.959	25.98
577.292	26.04
577.624	26.07
577.957	26.19
578.29	26.16
578.623	26.18
578.955	26.17
579.288	26.12
579.62	26.1
579.953	26.08
580.285	26
580.618	26.06
580.95	26.1
581.282	26.14
581.615	26.32
581.947	26.36
582.279	26.4
582.611	26.36
582.943	26.29
583.275	26.22
583.607	26.3
583.939	26.41
584.271	26.48
584.603	26.45
584.935	26.5
585.267	26.5
585.598	26.54
585.93	26.58
586.262	26.42
586.593	26.43
586.925	26.38
587.256	26.39
587.588	26.42
587.919	26.52
588.25	26.6
588.582	26.67
588.913	26.73
589.244	26.69
589.575	26.85
589.907	26.82
590.238	26.85
590.569	26.97
590.9	27.09
591.231	27.13
591.562	27.29
591.892	27.28
592.223	27.44
592.554	27.63
592.885	27.89
593.215	28.1
593.546	28.2
593.877	28.29
594.207	28.32
594.538	28.52
594.868	28.7
595.198	28.86
595.529	29.01
595.859	29.3
596.189	29.44
596.52	29.51
596.85	29.66
597.18	29.71
597.51	29.84
597.84	29.81
598.17	29.94
598.5	30.02
598.83	30.09
599.16	30.38
599.489	30.64
599.819	30.81
600.149	30.96
600.479	30.99
600.808	31.01
601.138	31.08
601.467	31.15
601.797	31.4
602.126	31.64
602.456	32.09
602.785	32.3
603.114	32.43
603.443	32.63
603.773	32.88
604.102	32.91
604.431	32.96
604.76	33.1
605.089	33.27
605.418	33.49
605.747	33.65
606.076	33.85
606.405	33.92
606.733	34.13
607.062	34.33
607.391	34.42
607.72	34.61
608.048	34.8
608.377	35.18
608.705	35.51
609.034	35.79
609.362	36.07
609.69	36.21
610.019	36.33
610.347	36.47
610.675	36.59
611.004	36.75
611.332	36.96
611.66	37.24
611.988	37.35
612.316	37.49
612.644	37.75
612.972	37.98
613.3	38.01
613.627	38.29
613.955	38.52
614.283	38.8
614.611	39.22
614.938	39.43
615.266	39.82
615.593	39.91
615.921	40.06
616.248	40.25
616.576	40.27
616.903	40.36
617.23	40.55
617.558	40.78
617.885	41.19
618.212	41.52
618.539	41.71
618.866	41.74
619.193	41.91
619.52	42.06
619.847	42.12
620.174	42.13
620.501	42.47
620.828	42.48
621.155	42.4
621.481	42.78
621.808	42.69
622.135	42.98
622.461	42.89
622.788	42.9
623.114	43.02
623.441	42.79
623.767	42.98
624.093	43.16
624.42	43.28
624.746	43.64
625.072	43.67
625.398	43.83
625.725	43.91
626.051	43.84
626.377	44.02
626.703	44.39
627.029	44.54
627.354	44.66
627.68	44.84
628.006	44.6
628.332	44.91
628.658	45.03
628.983	44.82
629.309	45.2
629.634	45.23
629.96	45.56
630.285	45.58
630.611	45.75
630.936	45.8
631.262	46.33
631.587	46.68
631.912	46.83
632.237	46.72
632.562	46.72
632.887	46.56
633.213	47.05
633.538	47.44
633.863	47.65
634.187	47.76
634.512	47.91
634.837	47.9
635.162	48.31
635.487	48.56
635.811	48.82
636.136	49.46
636.461	49.84
636.785	49.45
637.11	50.45
637.434	50.65
637.758	51.06
638.083	51.28
638.407	51.49
638.731	52.22
639.056	52.47
639.38	52.15
639.704	52.08
640.028	52.75
640.352	53.34
640.676	53.96
641	53.99
641.324	54.26
641.648	53.69
641.972	53.47
642.295	54.53
642.619	54.66
642.943	54.36
643.266	53.93
643.59	53.69
643.913	53.67
644.237	53.73
644.56	53.53
644.884	53.54
645.207	53.52
645.53	53.78
645.854	53.8
646.177	53.25
646.5	53.02
646.823	52.48
647.146	52.66
647.469	52.78
647.792	52.91
648.115	52.39
648.438	52.55
648.761	54.92
649.084	56.7
649.406	56.33
649.729	55.42
650.052	55.29
650.374	55.11
650.697	55.21
651.019	55.21
651.342	55.43
651.664	55.59
651.987	55.55
652.309	55.45
652.631	55.65
652.953	55.96
653.276	55.96
653.598	55.79
653.92	55.76
654.242	56.13
654.564	56.19
654.886	56.32
655.208	56.27
655.53	56.22
655.851	55.96
656.173	56.1
656.495	56.14
656.816	54.91
657.138	53.76
657.46	53.48
657.781	54.56
658.103	54.69
658.424	54.97
658.746	54.74
659.067	54.68
659.388	54.54
659.709	54.23
660.031	54.42
660.352	55.06
660.673	54.45
660.994	53.45
661.315	53.29
661.636	53.97
661.957	54.44
662.278	53.38
662.599	53.51
662.919	53.31
663.24	53.4
663.561	53.28
663.881	53.75
664.202	52.68
664.523	51.94
664.843	53.1
665.164	52.72
665.484	52.35
665.804	52.2
666.125	53.01
666.445	52.86
666.765	53.04
667.085	53.77
667.405	53.35
667.726	54.3
668.046	54.41
668.366	54.01
668.686	53.63
669.005	54.42
669.325	54.17
669.645	53.72
669.965	53.56
670.285	53.9
670.604	53.8
670.924	53.8
671.243	53.66
671.563	54.13
671.882	54.37
672.202	55.75
672.521	55.84
672.841	55.33
673.16	55.73
673.479	55.8
673.798	56.15
674.117	56.34
674.437	56.75
674.756	57.09
675.075	57.17
675.394	56.93
675.713	56.62
676.031	56.92
676.35	57.34
676.669	57.36
676.988	57.1
677.306	56.22
677.625	56.31
677.944	56.39
678.262	55.85
678.581	56.09
678.899	56.72
679.218	56.34
679.536	56.97
679.854	56.53
680.172	55.66
680.491	55.76
680.809	55.64
681.127	55.73
681.445	55.82
681.763	55.71
682.081	55.25
682.399	54.71
682.717	54.27
683.035	54.37
683.352	54.85
683.67	54.54
683.988	54.62
684.306	54.15
684.623	54
684.941	54.96
685.258	55.77
685.576	55.65
685.893	55.16
686.211	55.92
686.528	55.98
686.845	55.88
687.162	56.32
687.48	55.05
687.797	55.02
688.114	54.83
688.431	54.96
688.748	56.19
689.065	55.63
689.382	55.51
689.699	57.17
690.015	57.49
690.332	57.75
690.649	57.92
690.966	56.77
691.282	56.72
691.599	55.96
691.915	54.95
692.232	55.23
692.548	56.02
692.865	54.8
693.181	56
693.497	56.31
693.813	57.5
694.13	57.31
694.446	57.58
694.762	57.46
695.078	57.75
695.394	58.95
695.71	59.94
696.026	59.49
696.342	58.62
696.658	56.92
696.973	57.29
697.289	57.21
697.605	55.76
697.92	55.5
698.236	55.69
698.551	54.85
698.867	55.7
699.182	56.18
699.498	57.4
699.813	58.93
700.128	60.35
700.444	59.71
700.759	58.53
701.074	56.82
701.389	56.56
701.704	55.61
702.019	55.42
702.334	55.6
702.649	55.77
702.964	56.24
703.279	55.47
703.594	55.6
703.908	56.82
704.223	58.14
704.538	59.17
704.852	58.91
705.167	59.73
705.481	59.55
705.796	59.72
706.11	58.27
706.425	59.45
706.739	59.13
707.053	58.86
707.368	58.31
707.682	57.26
707.996	57.17
708.31	57.95
708.624	59.62
708.938	60.89
709.252	60.69
709.566	60.34
709.88	60.11
710.193	59.82
710.507	59.71
710.821	58.97
711.135	58.96
711.448	58.95
711.762	58.52
712.075	57.72
712.389	57.41
712.702	57.06
713.015	55.86
713.329	55.67
713.642	55.48
713.955	55.93
714.269	54.96
714.582	55.31
714.895	54.17
715.208	55.77
715.521	56.13
715.834	54.91
716.147	54.83
716.459	54.96
716.772	54.66
717.085	55.37
717.398	55.74
717.71	54.33
718.023	53.55
718.336	53.16
718.648	53.85
718.961	54.09
719.273	52.98
719.585	53.34
719.898	53.87
720.21	53.98
720.522	54.5
720.834	53.93
721.147	54.2
721.459	54.46
721.771	55.31
722.083	54.78
722.395	53.69
722.707	54.93
723.019	53.08
723.33	53.24
723.642	54.17
723.954	52.53
724.265	52.5
724.577	52.2
724.889	52.44
725.2	52.24
725.512	53.92
725.823	54.97
726.135	54.51
726.446	54.53
726.757	54.93
727.068	56.05
727.38	56.07
727.691	55.97
728.002	55.94
728.313	56.34
728.624	56.15
728.935	55.72
729.246	56.17
729.557	56.66
729.867	57.13
730.178	58.12
730.489	58.37
730.8	58.56
731.11	57.98
731.421	57.09
731.731	57.85
732.042	57.02
732.352	56.6
732.663	56.68
732.973	56.91
733.283	56.88
733.594	57.28
733.904	58.1
734.214	58.09
734.524	58.03
734.834	57.69
735.144	56.72
735.454	57.59
735.764	57.65
736.074	57.3
736.384	57.92
736.694	58.66
737.003	59.46
737.313	57.86
737.623	58.24
737.932	58.24
738.242	57.75
738.551	57.65
738.861	58.57
739.17	58.72
739.479	58.39
739.789	59.6
740.098	59.96
740.407	59.65
740.716	60.2
741.025	60.02
741.334	57.96
741.643	58.51
741.952	58.01
742.261	55.94
742.57	55.66
742.879	57.2
743.188	56.36
743.497	57.15
743.805	57.55
744.114	58.9
744.422	60.48
744.731	58.8
745.04	58.84
745.348	58.73
745.656	57.54
745.965	56.17
746.273	56.18
746.581	54.9
746.889	55.43
747.198	57.26
747.506	58.57
747.814	58.75
748.122	60.07
748.43	58.76
748.738	58.5
749.046	59.41
749.353	57.53
749.661	57.33
749.969	59.1
750.277	59.09
750.584	57.8
750.892	55.36
751.199	55.63
751.507	54.39
751.814	53.82
752.122	52.3
752.429	52.49
752.736	54.1
753.044	54
753.351	55.75
753.658	56.86
753.965	58.12
754.272	58.11
754.579	57.64
754.886	54.2
755.193	52.42
755.5	53.8
755.807	51.92
756.114	54.15
756.42	55.36
756.727	53.32
757.034	54.13
757.34	53.88
757.647	53.02
757.953	52.64
758.26	51.04
758.566	53.18
758.872	51.85
759.179	52.13
759.485	53.66
759.791	52.38
760.097	49.48
760.403	47.61
760.709	47.42
761.015	44.18
761.321	43.54
761.627	43
761.933	41.52
762.239	42.91
762.545	44.82
762.851	45.56
763.156	41.82
763.462	43.35
763.767	43.91
764.073	42.24
764.378	44.93
764.684	44.34
764.989	44.67
765.295	44.43
765.6	44.7
765.905	49.16
766.21	49.46
766.515	50.22
766.821	50.77
767.126	50.05
767.431	56.11
767.736	60.84
768.041	61.84
768.345	60.5
768.65	62.27
768.955	61.96
769.26	60.47
769.564	60.84
769.869	58.79
770.174	57.9
770.478	59.74
770.783	60.74
771.087	63.54
771.391	62.11
771.696	66.57
772	71.48
772.304	75.48
772.608	76.74
772.913	80.75
773.217	81.51
773.521	83.46
773.825	80.1
774.129	77.95
774.433	76.12
774.736	70.26
775.04	63.32
775.344	63.03
775.648	61.28
775.951	64.23
776.255	65.36
776.559	65.39
776.862	67.37
777.166	73.24
777.469	71.46
777.772	75.14
778.076	73.98
778.379	76.81
778.682	73.64
778.985	69.63
779.289	66.07
779.592	59.36
779.895	56.66
780.198	59.2
780.501	57.04
780.804	60.18
781.106	60.64
781.409	56.06
781.712	59.13
782.015	58.17
782.317	61.31
782.62	60.92
782.923	58.76
783.225	59.06
783.527	52.35
783.83	50.34
784.132	55.72
784.435	50.56
784.737	48.37
785.039	55.26
785.341	51.85
785.643	44.08
785.945	42.39
786.248	44.63
786.55	51.32
786.851	49.7
787.153	48.58
787.455	51.63
787.757	45.28
788.059	40.49
788.36	35.19
788.662	32.81
788.964	40.29
789.265	36.83
789.567	38.65
789.868	34.66
790.17	35.28
790.471	38.29
790.772	38.24
791.074	40.32
791.375	39.48
791.676	30.66
791.977	30.7
792.278	28.82
792.579	27.95
792.88	25.99
793.181	27.23
793.482	27.53
793.783	23.27
794.083	16.35
794.384	22.04
794.685	26.04
794.986	15.96
795.286	16.53
795.587	19.69
795.887	17.83
796.188	14.68
796.488	14.36
796.788	11.67
797.089	7.56
797.389	9.88
797.689	11.64
797.989	10.38
798.289	10.11
798.589	5.51
798.889	-0.18
799.189	0.78
799.489	3.76
799.789	1.89
800.089	2.96
800.389	8.35
800.688	11.75
800.988	13.53
801.288	11.95
801.587	19.21
801.887	-0.66
802.186	-14.6
802.486	-19.25
802.785	-25.45
803.085	-15.79
803.384	-19.87
803.683	-17.52
803.982	-9.57
804.281	-16.78
804.58	-5.34
804.879	6.64
805.178	0.06
805.477	4.52
805.776	2.06
806.075	11
806.374	19.69
806.673	13.25
806.971	15.81
807.27	7.45
807.569	12.4
807.867	17.91
808.166	14.25
808.464	24.49
808.763	39.13
809.061	32.55
809.359	42.48
809.658	52.96
809.956	100.07
810.254	137.15
810.552	141.02
810.85	103.16
811.148	81.51
811.446	60.72
811.744	54.29
812.042	58.18
812.34	34.36
812.638	39.43
812.935	17.56
813.233	31.1
813.531	26.39
813.828	38.86
814.126	52.75
814.423	58.43
814.721	50.12
815.018	-4.76
815.316	-53.57
815.613	-30.17
815.91	-53.53
816.207	-95.17
816.504	-68.4
816.802	-24.17
817.099	-21.2
817.396	-33.57
817.693	-49.88
817.99	-52.6
818.286	-67.74
818.583	-99.84
818.88	-80.09
819.177	-72.58
819.473	-55.78
819.77	-64.09
820.067	-79.19
820.363	-75.76
820.66	-88.93
820.956	-108.45
821.252	-144.9
821.549	-116.53
821.845	-88.61
822.141	-73.02
822.437	-60.9
822.734	-41.65
823.03	-51.13
823.326	-56.61
823.622	-61.02
823.918	-50.99
824.213	-54.43
824.509	-62.96
824.805	-63.65
825.101	-44.41
825.397	-44.4
825.692	-78.49
825.988	-53.26
826.283	-39.29
826.579	-43.2
826.874	-20.59
827.17	1.43
827.465	27.19
827.76	37.46
828.056	40.68
828.351	54.2
828.646	33.55
828.941	21.44
829.236	13.82
829.531	23.78
829.826	20.77
830.121	29.04
830.416	25.99
830.711	44.97
831.006	42.14
831.3	45.82
831.595	27.84
831.89	31.16
832.184	34.9
832.479	22.34
832.773	25.7
833.068	32.41
833.362	38.38
833.656	25.97
833.951	25.28
834.245	15.19
834.539	-2.64
834.833	1.14
835.127	9.86
835.421	13.76
835.715	23.53
836.009	48.98
836.303	48.65
836.597	38.26
836.891	41.11
837.185	36.58
837.478	25.65
837.772	30.18
838.066	17.75
838.359	16.4
838.653	13.03
838.946	30.11
839.24	25.95
839.533	26.32
839.826	38.27
840.119	27.32
840.413	33.48
840.706	30.8
840.999	39.36
841.292	47.3
841.585	57.97
841.878	54.71
842.171	43.57
842.464	34.16
842.757	42.3
843.049	41.12
843.342	15.36
843.635	7.32
843.927	21.57
844.22	6.25
844.513	9.27
844.805	13.38
845.098	7.16
845.39	20.17
845.682	28.91
845.975	27.73
846.267	46.82
846.559	60.63
846.851	69.59
847.143	67.76
847.435	80.17
847.727	37.41
848.019	32.39
848.311	41.34
848.603	36.1
848.895	42.59
849.186	42.99
849.478	46.09
849.77	45.04
850.061	43.24
850.353	41.99
850.645	36.21
850.936	45.58
851.227	38.29
851.519	40.42
851.81	41.37
852.101	39.37
852.393	42.52
852.684	32.65
852.975	43.25
853.266	35.22
853.557	10.47
853.848	11.51
854.139	10.42
854.43	0.05
854.72	-4.26
855.011	17.73
855.302	15.68
855.593	-3.36
855.883	-15.95
856.174	-34.93
856.464	-26
856.755	-48.41
857.045	-22.59
857.336	-5.57
857.626	-49.03
857.916	16.93
858.206	1.63
858.497	31.88
858.787	43.52
859.077	36.85
859.367	26.32
859.657	30.27
859.947	21.44
860.237	3.34
860.527	14.47
860.816	31.59
861.106	22.19
861.396	-2.38
861.685	19.43
861.975	28.59
862.265	12.85
862.554	20.38
862.844	-8.19
863.133	-12.44
863.422	11.01
863.712	4.92
864.001	19.04
864.29	6.31
864.579	-21.77
864.868	-13.52
865.157	-34.72
865.446	-30.11
865.735	-55.34
866.024	-85.01
866.313	-81.33
866.602	-87.37
866.891	-139
867.179	-145.93
867.468	-94.36
