Data from T2__Reflection__31__00-22-25-813.txt Node

Date: Sat Jun 05 00:22:25 CEST 2021
User: mabdelazizm
Spectrometer: FLMS18565
Trigger mode: 0
Integration Time (sec): 2.000000E0
Scans to average: 1
Electric dark correction enabled: true
Nonlinearity correction enabled: false
Boxcar width: 12
XAxis mode: Wavelengths
Number of Pixels in Spectrum: 2048
>>>>>Begin Spectral Data<<<<<
179.071	59.1
179.452	41.62
179.833	40
180.214	54.43
180.595	45.93
180.977	-23.53
181.358	-8.85
181.739	148.57
182.12	120.85
182.501	111.89
182.882	85.71
183.262	89.47
183.643	-112.33
184.024	44.04
184.405	59.38
184.786	51.45
185.166	64.9
185.547	71.11
185.927	52.39
186.308	43.59
186.689	42
187.069	49.85
187.449	36.98
187.83	31.9
188.21	19.18
188.59	12.31
188.971	13.23
189.351	14.55
189.731	17.86
190.111	13.2
190.491	10.84
190.871	8.92
191.251	20.3
191.631	26.78
192.011	19.98
192.391	17.25
192.771	15.15
193.151	11.36
193.531	7.06
193.91	7.15
194.29	7.99
194.67	7.44
195.049	3.25
195.429	6.86
195.808	6.84
196.188	3.23
196.567	-2.53
196.946	-0.22
197.326	-0.74
197.705	-2.42
198.084	0.53
198.464	-1.43
198.843	-2.89
199.222	-5.01
199.601	-1.9
199.98	-0.55
200.359	-1.62
200.738	-2.11
201.117	-5.5
201.496	-5.5
201.875	-8.31
202.254	-7.24
202.632	-4.41
203.011	-1.94
203.39	-3.65
203.768	-3.3
204.147	-0.93
204.525	-0.57
204.904	-2.4
205.282	-1.25
205.661	-0.56
206.039	-0.91
206.418	-2.6
206.796	0.78
207.174	0.03
207.552	0.27
207.931	-1.94
208.309	-0.14
208.687	-0.65
209.065	-3.54
209.443	-4.46
209.821	-1.87
210.199	-2.5
210.577	-0.83
210.954	3.93
211.332	4.48
211.71	4.86
212.088	3.93
212.465	1.2
212.843	3.06
213.221	4.44
213.598	0.88
213.976	-0.28
214.353	-0.22
214.731	1.12
215.108	1.92
215.485	4.11
215.863	3.02
216.24	1.34
216.617	4.09
216.994	4.49
217.371	5.22
217.749	4.83
218.126	5.7
218.503	5.37
218.88	4.18
219.256	3.75
219.633	2.8
220.01	1.57
220.387	0.75
220.764	-0.01
221.14	-0.59
221.517	0.01
221.894	0.12
222.27	-0.34
222.647	-0.63
223.023	-0.28
223.4	0.67
223.776	0.03
224.153	-1.18
224.529	-0.78
224.905	-0.45
225.282	0.06
225.658	-0.37
226.034	-0.53
226.41	-0.35
226.786	-0.49
227.162	-0.78
227.538	-0.49
227.914	-0.3
228.29	0.15
228.666	-0.27
229.042	-0.11
229.418	-0.07
229.793	-0.27
230.169	0.12
230.545	0.18
230.92	-0.12
231.296	-0.05
231.672	-0.04
232.047	-0.02
232.422	-0.11
232.798	-0.24
233.173	-0.28
233.549	-0
233.924	0.02
234.299	-0.04
234.674	0.09
235.05	0.33
235.425	0.07
235.8	-0.08
236.175	0.01
236.55	0.02
236.925	0
237.3	0.09
237.675	0.02
238.049	0.14
238.424	0.11
238.799	0.1
239.174	0.19
239.548	0.1
239.923	0.1
240.297	0.08
240.672	0.11
241.046	0.1
241.421	0.04
241.795	0.08
242.17	0.1
242.544	0.22
242.918	0.1
243.293	-0.01
243.667	-0.08
244.041	-0.06
244.415	-0.1
244.789	-0.08
245.163	-0.06
245.537	-0.03
245.911	0
246.285	-0.09
246.659	-0.17
247.033	-0.15
247.406	-0.19
247.78	-0.15
248.154	-0.08
248.528	-0.11
248.901	-0.02
249.275	-0.05
249.648	-0.02
250.022	-0.09
250.395	-0.05
250.769	-0.03
251.142	0.04
251.515	0.03
251.888	0.01
252.262	0.08
252.635	0.06
253.008	0.02
253.381	-0
253.754	-0
254.127	0.02
254.5	0.04
254.873	0.02
255.246	0.01
255.619	0.06
255.992	0.15
256.364	0.17
256.737	0.2
257.11	0.23
257.483	0.15
257.855	0.15
258.228	0.1
258.6	0.1
258.973	0.18
259.345	0.28
259.718	0.26
260.09	0.24
260.462	0.19
260.834	0.24
261.207	0.21
261.579	0.2
261.951	0.27
262.323	0.32
262.695	0.36
263.067	0.38
263.439	0.42
263.811	0.44
264.183	0.44
264.555	0.42
264.927	0.4
265.298	0.38
265.67	0.33
266.042	0.35
266.413	0.31
266.785	0.34
267.156	0.31
267.528	0.37
267.899	0.36
268.271	0.32
268.642	0.28
269.013	0.24
269.385	0.25
269.756	0.2
270.127	0.19
270.498	0.21
270.87	0.2
271.241	0.21
271.612	0.16
271.983	0.1
272.354	0.11
272.724	0.09
273.095	0.04
273.466	0
273.837	0.04
274.208	0.06
274.578	0.05
274.949	0.09
275.32	0.03
275.69	0.03
276.061	0.07
276.431	0.11
276.802	0.05
277.172	0.07
277.542	0.06
277.913	0.05
278.283	0.06
278.653	0.07
279.023	0.11
279.394	0.12
279.764	0.09
280.134	0.08
280.504	0.15
280.874	0.18
281.244	0.2
281.614	0.15
281.983	0.15
282.353	0.14
282.723	0.17
283.093	0.15
283.462	0.14
283.832	0.1
284.202	0.08
284.571	0.07
284.941	0.04
285.31	0.05
285.68	0.07
286.049	0.08
286.418	0.09
286.788	0.09
287.157	0.09
287.526	0.1
287.895	0.07
288.264	0.01
288.633	0.02
289.002	0.06
289.371	0.04
289.74	-0.06
290.109	-0.07
290.478	-0.12
290.847	-0.11
291.216	-0.15
291.585	-0.13
291.953	-0.14
292.322	-0.14
292.691	-0.13
293.059	-0.18
293.428	-0.14
293.796	-0.14
294.165	-0.15
294.533	-0.21
294.901	-0.29
295.27	-0.27
295.638	-0.32
296.006	-0.34
296.374	-0.34
296.743	-0.37
297.111	-0.35
297.479	-0.32
297.847	-0.36
298.215	-0.36
298.583	-0.38
298.95	-0.38
299.318	-0.34
299.686	-0.27
300.054	-0.31
300.422	-0.3
300.789	-0.31
301.157	-0.32
301.525	-0.32
301.892	-0.37
302.26	-0.31
302.627	-0.37
302.994	-0.36
303.362	-0.32
303.729	-0.26
304.097	-0.2
304.464	-0.21
304.831	-0.21
305.198	-0.21
305.565	-0.17
305.932	-0.19
306.299	-0.23
306.666	-0.18
307.033	-0.22
307.4	-0.24
307.767	-0.22
308.134	-0.22
308.501	-0.26
308.867	-0.26
309.234	-0.23
309.601	-0.18
309.967	-0.21
310.334	-0.18
310.701	-0.22
311.067	-0.22
311.433	-0.21
311.8	-0.17
312.166	-0.14
312.533	-0.13
312.899	-0.17
313.265	-0.2
313.631	-0.21
313.997	-0.18
314.363	-0.17
314.729	-0.24
315.096	-0.22
315.461	-0.18
315.827	-0.23
316.193	-0.18
316.559	-0.19
316.925	-0.14
317.291	-0.12
317.656	-0.12
318.022	-0.17
318.388	-0.19
318.753	-0.29
319.119	-0.23
319.484	-0.28
319.85	-0.25
320.215	-0.27
320.581	-0.29
320.946	-0.31
321.311	-0.31
321.676	-0.35
322.042	-0.33
322.407	-0.36
322.772	-0.33
323.137	-0.35
323.502	-0.34
323.867	-0.27
324.232	-0.33
324.597	-0.33
324.962	-0.3
325.327	-0.32
325.691	-0.3
326.056	-0.31
326.421	-0.3
326.785	-0.33
327.15	-0.28
327.514	-0.25
327.879	-0.21
328.243	-0.3
328.608	-0.24
328.972	-0.26
329.337	-0.21
329.701	-0.15
330.065	-0.25
330.429	-0.3
330.794	-0.33
331.158	-0.37
331.522	-0.42
331.886	-0.44
332.25	-0.42
332.614	-0.48
332.978	-0.58
333.342	-0.53
333.705	-0.54
334.069	-0.55
334.433	-0.53
334.797	-0.53
335.16	-0.53
335.524	-0.55
335.887	-0.48
336.251	-0.51
336.614	-0.55
336.978	-0.55
337.341	-0.47
337.705	-0.54
338.068	-0.46
338.431	-0.44
338.794	-0.48
339.158	-0.36
339.521	-0.37
339.884	-0.36
340.247	-0.32
340.61	-0.22
340.973	-0.24
341.336	-0.29
341.699	-0.26
342.062	-0.23
342.424	-0.22
342.787	-0.27
343.15	-0.3
343.512	-0.32
343.875	-0.34
344.238	-0.36
344.6	-0.39
344.963	-0.42
345.325	-0.47
345.688	-0.45
346.05	-0.45
346.412	-0.5
346.775	-0.46
347.137	-0.48
347.499	-0.51
347.861	-0.5
348.223	-0.56
348.585	-0.5
348.947	-0.48
349.309	-0.54
349.671	-0.61
350.033	-0.58
350.395	-0.57
350.757	-0.57
351.118	-0.59
351.48	-0.61
351.842	-0.57
352.203	-0.56
352.565	-0.58
352.927	-0.54
353.288	-0.51
353.65	-0.5
354.011	-0.51
354.372	-0.42
354.734	-0.44
355.095	-0.41
355.456	-0.41
355.817	-0.48
356.179	-0.53
356.54	-0.57
356.901	-0.61
357.262	-0.61
357.623	-0.68
357.984	-0.68
358.345	-0.59
358.705	-0.56
359.066	-0.61
359.427	-0.57
359.788	-0.6
360.148	-0.55
360.509	-0.44
360.87	-0.39
361.23	-0.32
361.591	-0.3
361.951	-0.33
362.312	-0.4
362.672	-0.35
363.032	-0.32
363.393	-0.35
363.753	-0.34
364.113	-0.43
364.473	-0.4
364.833	-0.33
365.193	-0.32
365.553	-0.31
365.913	-0.35
366.273	-0.32
366.633	-0.28
366.993	-0.27
367.353	-0.3
367.713	-0.29
368.072	-0.25
368.432	-0.27
368.792	-0.24
369.151	-0.3
369.511	-0.35
369.87	-0.41
370.23	-0.43
370.589	-0.49
370.949	-0.54
371.308	-0.52
371.667	-0.57
372.027	-0.54
372.386	-0.59
372.745	-0.6
373.104	-0.53
373.463	-0.56
373.822	-0.56
374.181	-0.57
374.54	-0.53
374.899	-0.44
375.258	-0.43
375.617	-0.43
375.975	-0.45
376.334	-0.49
376.693	-0.56
377.052	-0.56
377.41	-0.55
377.769	-0.56
378.127	-0.53
378.486	-0.59
378.844	-0.52
379.202	-0.6
379.561	-0.55
379.919	-0.55
380.277	-0.57
380.636	-0.57
380.994	-0.69
381.352	-0.71
381.71	-0.66
382.068	-0.62
382.426	-0.63
382.784	-0.59
383.142	-0.62
383.5	-0.65
383.857	-0.7
384.215	-0.78
384.573	-0.83
384.931	-0.87
385.288	-0.88
385.646	-0.87
386.003	-0.83
386.361	-0.86
386.718	-0.83
387.076	-0.76
387.433	-0.77
387.791	-0.8
388.148	-0.78
388.505	-0.84
388.862	-0.78
389.22	-0.72
389.577	-0.73
389.934	-0.69
390.291	-0.69
390.648	-0.68
391.005	-0.7
391.362	-0.64
391.718	-0.64
392.075	-0.61
392.432	-0.62
392.789	-0.53
393.145	-0.52
393.502	-0.48
393.859	-0.46
394.215	-0.46
394.572	-0.42
394.928	-0.46
395.285	-0.5
395.641	-0.49
395.997	-0.49
396.354	-0.5
396.71	-0.49
397.066	-0.5
397.422	-0.42
397.778	-0.44
398.134	-0.52
398.491	-0.48
398.846	-0.42
399.202	-0.36
399.558	-0.37
399.914	-0.4
400.27	-0.41
400.626	-0.46
400.981	-0.51
401.337	-0.48
401.693	-0.58
402.048	-0.55
402.404	-0.52
402.759	-0.49
403.115	-0.45
403.47	-0.4
403.826	-0.42
404.181	-0.38
404.536	-0.47
404.892	-0.53
405.247	-0.56
405.602	-0.66
405.957	-0.6
406.312	-0.65
406.667	-0.68
407.022	-0.67
407.377	-0.74
407.732	-0.81
408.087	-0.8
408.442	-0.82
408.796	-0.81
409.151	-0.8
409.506	-0.83
409.86	-0.78
410.215	-0.78
410.57	-0.77
410.924	-0.79
411.279	-0.83
411.633	-0.78
411.987	-0.83
412.342	-0.89
412.696	-0.89
413.05	-0.79
413.404	-0.69
413.758	-0.58
414.113	-0.53
414.467	-0.44
414.821	-0.46
415.175	-0.42
415.529	-0.4
415.882	-0.33
416.236	-0.24
416.59	-0.23
416.944	-0.2
417.298	-0.15
417.651	-0.19
418.005	-0.23
418.358	-0.13
418.712	-0.15
419.065	-0.11
419.419	-0.09
419.772	-0.04
420.126	0.01
420.479	0.01
420.832	0.08
421.185	0.12
421.539	0.12
421.892	0.01
422.245	-0.01
422.598	-0.1
422.951	-0.05
423.304	-0.04
423.657	-0.01
424.01	-0.07
424.363	-0.06
424.715	-0.02
425.068	-0.04
425.421	0.04
425.773	-0.01
426.126	-0.01
426.479	0.1
426.831	0.09
427.184	-0.01
427.536	0.06
427.889	0.03
428.241	0.05
428.593	0.01
428.945	-0.03
429.298	-0.06
429.65	-0.14
430.002	-0.24
430.354	-0.27
430.706	-0.19
431.058	-0.16
431.41	-0.18
431.762	-0.22
432.114	-0.23
432.466	-0.26
432.817	-0.16
433.169	-0.11
433.521	-0.25
433.872	-0.28
434.224	-0.34
434.576	-0.31
434.927	-0.41
435.279	-0.51
435.63	-0.49
435.981	-0.45
436.333	-0.46
436.684	-0.46
437.035	-0.48
437.387	-0.43
437.738	-0.43
438.089	-0.47
438.44	-0.41
438.791	-0.31
439.142	-0.24
439.493	-0.29
439.844	-0.33
440.195	-0.3
440.545	-0.2
440.896	-0.18
441.247	-0.16
441.598	-0.27
441.948	-0.32
442.299	-0.23
442.649	-0.2
443	-0.23
443.35	-0.25
443.701	-0.27
444.051	-0.2
444.401	-0.21
444.752	-0.18
445.102	-0.17
445.452	-0.17
445.802	-0.17
446.152	-0.2
446.502	-0.08
446.852	-0.09
447.202	-0.11
447.552	-0.09
447.902	-0.09
448.252	-0.06
448.602	-0.57
448.952	-0.66
449.301	-0.72
449.651	-0.69
450.001	-0.67
450.35	-0.62
450.7	-0.59
451.049	-0.61
451.399	-0.64
451.748	-0.62
452.097	-0.62
452.447	-0.55
452.796	-0.59
453.145	-0.47
453.494	-0.54
453.843	-0.68
454.193	-0.67
454.542	-0.61
454.891	-0.63
455.239	-0.71
455.588	-0.75
455.937	-0.7
456.286	-0.69
456.635	-0.76
456.984	-0.75
457.332	-0.17
457.681	-0.02
458.03	0
458.378	-0.07
458.727	-0
459.075	-0.06
459.423	-0.01
459.772	-0.04
460.12	0.01
460.468	0.12
460.817	0.18
461.165	0.17
461.513	0.17
461.861	0.21
462.209	0.19
462.557	0.26
462.905	0.2
463.253	0.17
463.601	0.2
463.949	0.13
464.297	0.19
464.644	0.18
464.992	0.15
465.34	0.21
465.687	0.17
466.035	0.25
466.383	0.18
466.73	0.14
467.078	0.16
467.425	0
467.772	0.04
468.12	-0.08
468.467	-0.01
468.814	-0.06
469.161	-0.19
469.508	-0.24
469.856	-0.25
470.203	-0.23
470.55	-0.38
470.897	-0.27
471.243	-0.19
471.59	-0.16
471.937	-0.21
472.284	-0.19
472.631	-0.16
472.977	-0.17
473.324	-0.12
473.671	-0.11
474.017	-0.06
474.364	-0.09
474.71	-0.12
475.057	-0.16
475.403	-0.14
475.749	-0.14
476.096	-0.07
476.442	0.01
476.788	0.03
477.134	0.02
477.48	0.02
477.826	0.05
478.172	0.08
478.518	0.07
478.864	0.11
479.21	0.17
479.556	0.14
479.902	0.16
480.248	0.2
480.593	0.21
480.939	0.14
481.285	0.24
481.63	0.25
481.976	0.17
482.321	0.14
482.667	0.09
483.012	0.17
483.357	0.15
483.703	0.22
484.048	0.22
484.393	0.27
484.738	0.31
485.084	0.29
485.429	0.32
485.774	0.33
486.119	0.39
486.464	0.48
486.808	0.48
487.153	0.54
487.498	0.59
487.843	0.59
488.188	0.7
488.532	0.74
488.877	0.84
489.222	0.97
489.566	1.14
489.911	1.2
490.255	1.35
490.6	1.52
490.944	1.68
491.288	1.86
491.633	1.95
491.977	2.16
492.321	2.34
492.665	2.49
493.009	2.68
493.353	2.88
493.697	3.05
494.041	3.27
494.385	3.46
494.729	3.64
495.073	3.81
495.417	4.07
495.76	4.36
496.104	4.58
496.448	4.85
496.791	5.03
497.135	5.25
497.479	5.46
497.822	5.7
498.165	5.9
498.509	6.16
498.852	6.32
499.196	6.57
499.539	6.86
499.882	7.09
500.225	7.36
500.568	7.53
500.911	7.77
501.254	8.04
501.597	8.2
501.94	8.32
502.283	8.58
502.626	8.79
502.969	8.98
503.312	9.24
503.654	9.43
503.997	9.62
504.34	9.84
504.682	10.04
505.025	10.22
505.367	10.43
505.71	10.58
506.052	10.73
506.395	10.86
506.737	11.04
507.079	11.13
507.421	11.4
507.764	11.57
508.106	11.67
508.448	11.84
508.79	11.91
509.132	12.03
509.474	12.2
509.816	12.26
510.158	12.33
510.499	12.55
510.841	12.64
511.183	12.79
511.525	12.87
511.866	12.89
512.208	12.95
512.549	12.97
512.891	12.99
513.232	12.95
513.574	13.02
513.915	13.08
514.256	13.09
514.598	13.19
514.939	13.29
515.28	13.3
515.621	13.36
515.962	13.37
516.303	13.38
516.644	13.36
516.985	13.38
517.326	13.48
517.667	13.54
518.008	13.46
518.349	13.48
518.69	13.61
519.03	13.57
519.371	13.52
519.712	13.49
520.052	13.54
520.393	13.63
520.733	13.57
521.074	13.61
521.414	13.54
521.754	13.67
522.095	13.63
522.435	13.64
522.775	13.72
523.115	13.56
523.455	13.52
523.795	13.58
524.135	13.54
524.475	13.6
524.815	13.63
525.155	13.6
525.495	13.56
525.835	13.54
526.175	13.53
526.514	13.56
526.854	13.72
527.194	13.59
527.533	13.6
527.873	13.59
528.212	13.62
528.552	13.63
528.891	13.6
529.23	13.71
529.57	13.73
529.909	13.8
530.248	13.74
530.587	13.75
530.927	13.64
531.266	13.59
531.605	13.7
531.944	13.76
532.283	13.69
532.621	13.65
532.96	13.64
533.299	13.56
533.638	13.55
533.977	13.51
534.315	13.63
534.654	13.52
534.992	13.53
535.331	13.27
535.67	13.27
536.008	13.25
536.346	13.28
536.685	13.28
537.023	13.21
537.361	13.12
537.7	12.97
538.038	12.9
538.376	12.9
538.714	12.84
539.052	12.8
539.39	12.86
539.728	12.89
540.066	12.87
540.404	12.8
540.741	12.74
541.079	12.8
541.417	12.66
541.755	12.76
542.092	12.81
542.43	12.79
542.767	12.63
543.105	12.66
543.442	12.59
543.78	12.69
544.117	12.7
544.454	12.7
544.792	12.61
545.129	12.56
545.466	12.53
545.803	12.6
546.14	12.65
546.477	12.65
546.814	12.54
547.151	12.5
547.488	12.46
547.825	12.45
548.162	12.48
548.499	12.38
548.835	12.39
549.172	12.32
549.509	12.27
549.845	12.23
550.182	12.14
550.518	11.97
550.855	11.98
551.191	12.01
551.528	11.99
551.864	12
552.2	12.01
552.537	12.08
552.873	12.02
553.209	12.03
553.545	11.9
553.881	11.85
554.217	11.84
554.553	12
554.889	12.09
555.225	12.29
555.561	12.39
555.896	12.42
556.232	12.48
556.568	12.31
556.903	12.46
557.239	12.48
557.575	12.62
557.91	12.63
558.245	12.91
558.581	13.01
558.916	13.2
559.252	13.23
559.587	13.13
559.922	13.3
560.257	13.34
560.592	13.37
560.928	13.27
561.263	13.37
561.598	13.47
561.933	13.7
562.267	13.91
562.602	13.88
562.937	13.97
563.272	14.06
563.607	14.02
563.941	14.18
564.276	14.31
564.611	14.41
564.945	14.53
565.28	14.68
565.614	14.67
565.949	14.77
566.283	14.9
566.617	14.79
566.951	14.81
567.286	14.95
567.62	15.06
567.954	15.21
568.288	15.21
568.622	15.25
568.956	15.32
569.29	15.46
569.624	15.5
569.958	15.6
570.292	15.58
570.626	15.52
570.959	15.63
571.293	15.63
571.627	15.68
571.96	15.75
572.294	15.75
572.627	15.75
572.961	15.77
573.294	15.91
573.627	15.91
573.961	16.03
574.294	16.12
574.627	16.2
574.961	16.41
575.294	16.52
575.627	16.53
575.96	16.62
576.293	16.67
576.626	16.72
576.959	16.78
577.292	16.79
577.624	16.82
577.957	16.89
578.29	16.93
578.623	17.03
578.955	17.2
579.288	17.32
579.62	17.42
579.953	17.46
580.285	17.55
580.618	17.67
580.95	17.77
581.282	17.83
581.615	17.91
581.947	18.05
582.279	18.07
582.611	18.07
582.943	18.15
583.275	18.15
583.607	18.29
583.939	18.36
584.271	18.43
584.603	18.51
584.935	18.6
585.267	18.69
585.598	18.82
585.93	18.94
586.262	19.04
586.593	19.14
586.925	19.17
587.256	19.2
587.588	19.18
587.919	19.2
588.25	19.42
588.582	19.47
588.913	19.53
589.244	19.64
589.575	19.74
589.907	19.76
590.238	19.7
590.569	19.93
590.9	20.13
591.231	20.31
591.562	20.38
591.892	20.38
592.223	20.52
592.554	20.67
592.885	20.84
593.215	20.94
593.546	21.06
593.877	21.24
594.207	21.3
594.538	21.44
594.868	21.56
595.198	21.67
595.529	21.8
595.859	21.98
596.189	22.14
596.52	22.19
596.85	22.37
597.18	22.46
597.51	22.61
597.84	22.73
598.17	22.95
598.5	23.14
598.83	23.25
599.16	23.48
599.489	23.49
599.819	23.56
600.149	23.73
600.479	23.85
600.808	23.97
601.138	24.1
601.467	24.27
601.797	24.44
602.126	24.54
602.456	24.79
602.785	24.98
603.114	25.08
603.443	25.32
603.773	25.59
604.102	25.77
604.431	25.92
604.76	25.98
605.089	26.09
605.418	26.23
605.747	26.42
606.076	26.58
606.405	26.65
606.733	26.93
607.062	27.23
607.391	27.25
607.72	27.51
608.048	27.87
608.377	28
608.705	28.3
609.034	28.54
609.362	28.72
609.69	29.07
610.019	29.31
610.347	29.55
610.675	29.65
611.004	29.81
611.332	30.01
611.66	30.17
611.988	30.28
612.316	30.48
612.644	30.52
612.972	30.89
613.3	30.93
613.627	31.24
613.955	31.45
614.283	31.75
614.611	32.01
614.938	32
615.266	31.94
615.593	32.08
615.921	32.28
616.248	32.55
616.576	33.06
616.903	33.25
617.23	33.65
617.558	33.9
617.885	34.08
618.212	34.38
618.539	34.64
618.866	34.79
619.193	34.9
619.52	35.07
619.847	35.46
620.174	35.79
620.501	35.96
620.828	36.54
621.155	36.62
621.481	37.11
621.808	37.14
622.135	37.27
622.461	37.54
622.788	37.6
623.114	38
623.441	38.31
623.767	38.73
624.093	38.83
624.42	38.81
624.746	38.94
625.072	39.33
625.398	39.18
625.725	39.5
626.051	39.81
626.377	39.97
626.703	40
627.029	40.5
627.354	40.66
627.68	40.96
628.006	41.14
628.332	41.13
628.658	41.07
628.983	40.86
629.309	41.2
629.634	41.49
629.96	41.73
630.285	41.63
630.611	41.62
630.936	41.91
631.262	41.96
631.587	41.97
631.912	42.07
632.237	42.35
632.562	42.73
632.887	42.81
633.213	42.9
633.538	43.48
633.863	43.8
634.187	44.08
634.512	44.3
634.837	44.58
635.162	44.75
635.487	45.12
635.811	45.64
636.136	45.86
636.461	46.06
636.785	46.47
637.11	47.15
637.434	47.3
637.758	47.36
638.083	48.49
638.407	48.8
638.731	48.71
639.056	49.31
639.38	49.27
639.704	49.95
640.028	50.52
640.352	50.87
640.676	51.33
641	51.35
641.324	51.38
641.648	51.36
641.972	51.15
642.295	50.52
642.619	50.34
642.943	50.23
643.266	49.91
643.59	49.61
643.913	49.64
644.237	49.37
644.56	49.76
644.884	49.63
645.207	49.71
645.53	49.68
645.854	50.1
646.177	49.44
646.5	49.79
646.823	50.44
647.146	50.29
647.469	50.14
647.792	49.85
648.115	49.45
648.438	50.13
648.761	51.61
649.084	53.69
649.406	54.73
649.729	54.64
650.052	54.6
650.374	54.64
650.697	54.68
651.019	54.77
651.342	54.93
651.664	55.19
651.987	55.02
652.309	55.18
652.631	55.07
652.953	55.11
653.276	55.05
653.598	55.01
653.92	54.87
654.242	55.07
654.564	55.01
654.886	54.87
655.208	54.98
655.53	55.13
655.851	55.06
656.173	55.39
656.495	55.3
656.816	54.82
657.138	53.93
657.46	53.04
657.781	53.06
658.103	53.4
658.424	53.71
658.746	53.54
659.067	53.9
659.388	53.49
659.709	53.7
660.031	53.86
660.352	53.66
660.673	54.35
660.994	54.59
661.315	54.54
661.636	54.99
661.957	55.91
662.278	55.26
662.599	56.04
662.919	56.06
663.24	56.04
663.561	55.98
663.881	56.31
664.202	54.99
664.523	54.59
664.843	54.84
665.164	54.72
665.484	54.44
665.804	53.46
666.125	53.49
666.445	53.5
666.765	53.83
667.085	53.61
667.405	54.09
667.726	53.71
668.046	54.65
668.366	54.41
668.686	54.07
669.005	54.05
669.325	54.37
669.645	54.09
669.965	53.76
670.285	53.91
670.604	53.45
670.924	54.06
671.243	54.13
671.563	53.94
671.882	53.3
672.202	53.72
672.521	53.99
672.841	53.99
673.16	54.55
673.479	54.96
673.798	55.85
674.117	55.5
674.437	55.53
674.756	56.11
675.075	56.34
675.394	56.02
675.713	55.72
676.031	55.49
676.35	56.49
676.669	56.45
676.988	56.6
677.306	56.65
677.625	57.32
677.944	57.38
678.262	57.3
678.581	58.26
678.899	57.25
679.218	56.2
679.536	56.6
679.854	57.45
680.172	57.23
680.491	56.73
680.809	55.85
681.127	55.77
681.445	55.58
681.763	55.12
682.081	55.15
682.399	55.59
682.717	55.12
683.035	55.53
683.352	56.04
683.67	56.58
683.988	56.29
684.306	55.87
684.623	56
684.941	56.39
685.258	56.57
685.576	56.56
685.893	56.73
686.211	56.94
686.528	56.48
686.845	57.66
687.162	58.65
687.48	59.16
687.797	59.74
688.114	60.56
688.431	61.25
688.748	62.25
689.065	62.08
689.382	62.29
689.699	62.58
690.015	63.29
690.332	63.45
690.649	62.93
690.966	61.76
691.282	61.85
691.599	60.63
691.915	60.23
692.232	59.72
692.548	59.14
692.865	58.82
693.181	58.77
693.497	58.7
693.813	58.38
694.13	59.1
694.446	58.57
694.762	58.55
695.078	59.02
695.394	58.93
695.71	58.47
696.026	57.43
696.342	57.4
696.658	57.28
696.973	57.52
697.289	57.16
697.605	57.03
697.92	56.94
698.236	56.33
698.551	57.3
698.867	58.89
699.182	59.33
699.498	60.23
699.813	60.72
700.128	62.58
700.444	63.23
700.759	63.28
701.074	63.63
701.389	63.22
701.704	62.34
702.019	61.43
702.334	62.18
702.649	61.79
702.964	60.24
703.279	59.87
703.594	58.9
703.908	59.46
704.223	59.29
704.538	59.68
704.852	59.7
705.167	60
705.481	59.83
705.796	59.41
706.11	58.76
706.425	58.16
706.739	57.64
707.053	57.84
707.368	58.01
707.682	58.42
707.996	57.11
708.31	56.98
708.624	57.22
708.938	56.71
709.252	56.83
709.566	57.73
709.88	57.98
710.193	57.04
710.507	56.56
710.821	58.55
711.135	59.44
711.448	60.39
711.762	61.03
712.075	61.35
712.389	61.86
712.702	61.2
713.015	60.56
713.329	61.53
713.642	61.76
713.955	62.46
714.269	62.36
714.582	62.23
714.895	61.55
715.208	62.69
715.521	63.71
715.834	64.17
716.147	63.41
716.459	64.02
716.772	63.3
717.085	62.95
717.398	63.58
717.71	63.49
718.023	65.04
718.336	66.16
718.648	65.72
718.961	64.2
719.273	64.56
719.585	63.28
719.898	62.84
720.21	61.95
720.522	63.07
720.834	63.97
721.147	64.79
721.459	63.28
721.771	63.74
722.083	64.12
722.395	63.09
722.707	61.89
723.019	60.49
723.33	59.17
723.642	59.4
723.954	60.42
724.265	59.02
724.577	57.93
724.889	58.15
725.2	57.55
725.512	58.05
725.823	57.25
726.135	56.89
726.446	56.87
726.757	57.26
727.068	56.29
727.38	57.16
727.691	57.69
728.002	57.53
728.313	56.6
728.624	56.82
728.935	55.92
729.246	56.31
729.557	56.11
729.867	55.91
730.178	55.82
730.489	56.93
730.8	57.51
731.11	57.08
731.421	56.89
731.731	56.96
732.042	57.73
732.352	57.92
732.663	58.26
732.973	58.07
733.283	57.17
733.594	57.67
733.904	57.49
734.214	56.83
734.524	57.24
734.834	58.12
735.144	58.12
735.454	57.1
735.764	57.78
736.074	58.6
736.384	57.9
736.694	58.26
737.003	58.21
737.313	57.97
737.623	57.39
737.932	59.3
738.242	59.27
738.551	60.8
738.861	60.88
739.17	61.17
739.479	60.93
739.789	59.88
740.098	62.16
740.407	62.22
740.716	63.91
741.025	63.97
741.334	64.43
741.643	64.57
741.952	67.14
742.261	67.9
742.57	67.62
742.879	66.05
743.188	66.67
743.497	65.63
743.805	67.1
744.114	70.72
744.422	69.99
744.731	72
745.04	70.64
745.348	73.04
745.656	72.66
745.965	71.64
746.273	69.58
746.581	73.48
746.889	72.72
747.198	71.91
747.506	70.37
747.814	68.4
748.122	67.78
748.43	64.74
748.738	66.29
749.046	66.12
749.353	67.22
749.661	65.39
749.969	63.72
750.277	62.58
750.584	63.99
750.892	62.47
751.199	61.71
751.507	58.39
751.814	55.11
752.122	55.35
752.429	55.5
752.736	59.25
753.044	58.21
753.351	57.83
753.658	56.55
753.965	55.84
754.272	53.37
754.579	51.3
754.886	51.37
755.193	52.29
755.5	54.65
755.807	53.98
756.114	56.01
756.42	55.71
756.727	55.19
757.034	55.77
757.34	54.48
757.647	55.4
757.953	55.85
758.26	55.15
758.566	54.4
758.872	54.7
759.179	56.25
759.485	57.31
759.791	56.21
760.097	57.69
760.403	55.18
760.709	53.44
761.015	54.26
761.321	55.04
761.627	54.09
761.933	52.94
762.239	55.42
762.545	58.11
762.851	58.66
763.156	56.24
763.462	59.69
763.767	57.97
764.073	60.65
764.378	58.96
764.684	57.17
764.989	59.16
765.295	58.92
765.6	60
765.905	61.13
766.21	66.88
766.515	65.43
766.821	66.05
767.126	67.28
767.431	69.28
767.736	65.17
768.041	65.7
768.345	70.24
768.65	67.38
768.955	68.51
769.26	66.39
769.564	67.5
769.869	68.49
770.174	66.48
770.478	73.05
770.783	74.89
771.087	73.68
771.391	76.98
771.696	66.29
772	72.24
772.304	80.15
772.608	76.02
772.913	80.09
773.217	73.89
773.521	65.98
773.825	59.16
774.129	59.77
774.433	59.46
774.736	57.66
775.04	58.44
775.344	58.75
775.648	61.93
775.951	58.01
776.255	63.16
776.559	58.95
776.862	65.08
777.166	73.1
777.469	77.04
777.772	78.4
778.076	74.36
778.379	70.99
778.682	66.42
778.985	66.73
779.289	77.11
779.592	70.33
779.895	66.95
780.198	71.66
780.501	63.63
780.804	68.4
781.106	77.86
781.409	75.2
781.712	81.27
782.015	78.95
782.317	83.14
782.62	82.11
782.923	74.72
783.225	68.52
783.527	70.39
783.83	61.98
784.132	68.75
784.435	65.67
784.737	61.91
785.039	59.65
785.341	48.34
785.643	40.51
785.945	37.04
786.248	34.64
786.55	32.38
786.851	27.92
787.153	26.56
787.455	24.47
787.757	23.33
788.059	28.03
788.36	15.8
788.662	18.61
788.964	29.86
789.265	34.59
789.567	35.21
789.868	25.88
790.17	18.95
790.471	30.62
790.772	30.02
791.074	30.93
791.375	31.7
791.676	29.93
791.977	28.52
792.278	13.5
792.579	17.8
792.88	28.02
793.181	24.92
793.482	15.57
793.783	25.66
794.083	11.45
794.384	24.45
794.685	26.37
794.986	8.82
795.286	2.14
795.587	-7.7
795.887	4.04
796.188	-1.5
796.488	-28.62
796.788	-39.73
797.089	-60.26
797.389	-71.04
797.689	-65.71
797.989	-135.83
798.289	-129.49
798.589	-131.06
798.889	-127.27
799.189	-159.92
799.489	-235.07
799.789	-131.81
800.089	-167.28
800.389	-100.75
800.688	-58.1
800.988	-30.35
801.288	-44.9
801.587	-48.37
801.887	-59.12
802.186	-84.73
802.486	-82.39
802.785	-134.44
803.085	-91.38
803.384	-58.08
803.683	-43.96
803.982	-36.49
804.281	-51.09
804.58	-51.07
804.879	-61.22
805.178	-57.51
805.477	-45.89
805.776	-7.48
806.075	-13.69
806.374	21.78
806.673	26.22
806.971	20.21
807.27	6.16
807.569	19.43
807.867	-34.2
808.166	-57.39
808.464	-6.38
808.763	10.22
809.061	90.91
809.359	136.33
809.658	139.93
809.956	164.54
810.254	360.95
810.552	-864.79
810.85	-256.54
811.148	-160.11
811.446	-147.8
811.744	-146.51
812.042	-177.94
812.34	-191.6
812.638	-201.84
812.935	-240.23
813.233	-139.81
813.531	-99.41
813.828	-58.28
814.126	-62.78
814.423	-58.88
814.721	-65.81
815.018	-31.05
815.316	-16.61
815.613	-15.04
815.91	-13.51
816.207	-11.3
816.504	-34.2
816.802	-46.1
817.099	1.06
817.396	38.84
817.693	84.12
817.99	143.91
818.286	184.94
818.583	268.16
818.88	1454.9
819.177	-2232.43
819.473	-1067.42
819.77	-1370.37
820.067	-1092.04
820.363	-490.61
820.66	-291.25
820.956	-252.76
821.252	-126.7
821.549	-91.21
821.845	-75.25
822.141	-49.52
822.437	-15.98
822.734	-10.18
823.03	-11.6
823.326	-35.27
823.622	-40
823.918	-45.07
824.213	-46.39
824.509	-28.85
824.805	-26.38
825.101	-36.03
825.397	-34.42
825.692	-20.52
825.988	-10.58
826.283	-8.84
826.579	-25.64
826.874	-19.54
827.17	-1.02
827.465	0.7
827.76	-13.53
828.056	-22.89
828.351	-0.33
828.646	-24.94
828.941	-235.2
829.236	386.92
829.531	317.54
829.826	189.5
830.121	250.17
830.416	205.63
830.711	144.52
831.006	188.97
831.3	293.81
831.595	248.58
831.89	304.87
832.184	264.9
832.479	317.28
832.773	304.04
833.068	269.69
833.362	220.84
833.656	185.69
833.951	156.04
834.245	115.32
834.539	108.42
834.833	138.99
835.127	181.84
835.421	190.37
835.715	180.35
836.009	217.92
836.303	449.28
836.597	571.61
836.891	-1228.57
837.185	-190.51
837.478	-216.58
837.772	-203.32
838.066	-132.05
838.359	-112.98
838.653	-162.13
838.946	-148.94
839.24	-569.81
839.533	-89.95
839.826	1103.7
840.119	851.43
840.413	-724.14
840.706	-309.59
840.999	-15.2
841.292	-155.28
841.585	-35.38
841.878	-76.06
842.171	77.87
842.464	194.57
842.757	209.04
843.049	185.19
843.342	-267.8
843.635	-8.61
843.927	-54.55
844.22	6.26
844.513	3.08
844.805	7.3
845.098	6.18
845.39	-7.54
845.682	4.86
845.975	13.72
846.267	9.94
846.559	-13.28
846.851	8
847.143	3.41
847.435	4.33
847.727	-20.95
848.019	-73.95
848.311	-81.57
848.603	-194.89
848.895	-116.4
849.186	-203.29
849.478	-189.96
849.77	-239.79
850.061	-271.94
850.353	-462.07
850.645	568.32
850.936	243.69
851.227	2520
851.519	332.72
851.81	259.81
852.101	249.32
852.393	174.87
852.684	188.26
852.975	287.54
853.266	185.87
853.557	200
853.848	188.45
854.139	172.03
854.43	159.02
854.72	176.42
855.011	166.74
855.302	130.73
855.593	135.48
855.883	220.63
856.174	175.06
856.464	139.95
856.755	114.74
857.045	135.34
857.336	108.07
857.626	97.79
857.916	97.27
858.206	123.43
858.497	131.59
858.787	165.45
859.077	358.68
859.367	1476.19
859.657	246.72
859.947	117.37
860.237	98.16
860.527	124.71
860.816	105.7
861.106	101.57
861.396	136.79
861.685	149.57
861.975	133.88
862.265	157.1
862.554	138.46
862.844	116.07
863.133	67.25
863.422	164.36
863.712	314.29
864.001	-72
864.29	-47.62
864.579	-39.55
864.868	11.76
865.157	27.39
865.446	47.14
865.735	110.56
866.024	86.32
866.313	133.69
866.602	176.47
866.891	121.4
867.179	95.48
867.468	112.7
