Data from T2_Reflection__92__19-52-08-162.txt Node

Date: Fri Jun 04 19:52:08 CEST 2021
User: mabdelazizm
Spectrometer: FLMS18565
Trigger mode: 0
Integration Time (sec): 2.000000E0
Scans to average: 1
Electric dark correction enabled: true
Nonlinearity correction enabled: false
Boxcar width: 12
XAxis mode: Wavelengths
Number of Pixels in Spectrum: 2048
>>>>>Begin Spectral Data<<<<<
179.071	-193.94
179.452	-140.44
179.833	-336.13
180.214	-361.54
180.595	-327.75
180.977	-453.23
181.358	-343.46
181.739	-301.68
182.12	-166.41
182.501	-165.97
182.882	-209.1
183.262	-874.29
183.643	-146.78
184.024	-36.74
184.405	20.07
184.786	42.52
185.166	22.41
185.547	11.79
185.927	16.1
186.308	10.57
186.689	30.19
187.069	39.46
187.449	28.25
187.83	22.09
188.21	22.57
188.59	24.16
188.971	27.58
189.351	30.36
189.731	32.32
190.111	33.44
190.491	25.69
190.871	19.45
191.251	21.11
191.631	21.98
192.011	21.23
192.391	22.91
192.771	26.52
193.151	25.99
193.531	24.76
193.91	24.47
194.29	22.6
194.67	24.01
195.049	20.76
195.429	17.92
195.808	19.03
196.188	13.99
196.567	10.83
196.946	16.36
197.326	15.97
197.705	15.96
198.084	14.93
198.464	10.63
198.843	9.57
199.222	8.89
199.601	7.2
199.98	6.9
200.359	8.86
200.738	9.29
201.117	5.08
201.496	1.79
201.875	1.94
202.254	1.17
202.632	0.06
203.011	-0.73
203.39	-1.59
203.768	0.69
204.147	0.58
204.525	2.34
204.904	0.91
205.282	1.82
205.661	-0.97
206.039	-0.27
206.418	-4.82
206.796	-2.15
207.174	-3.39
207.552	-2.49
207.931	-1.69
208.309	-2.2
208.687	-3.39
209.065	-1.63
209.443	-2.07
209.821	-2.89
210.199	-3.47
210.577	-2.96
210.954	0.27
211.332	-1.5
211.71	-2.91
212.088	-1.35
212.465	-1.97
212.843	-0.46
213.221	0.4
213.598	1.95
213.976	0.57
214.353	1.4
214.731	-0.66
215.108	1.34
215.485	1.27
215.863	1.82
216.24	0.85
216.617	0.51
216.994	0.58
217.371	0.41
217.749	-0.43
218.126	-0.14
218.503	0.47
218.88	-0.16
219.256	-0.78
219.633	0.24
220.01	-0.23
220.387	0.19
220.764	0.41
221.14	0.87
221.517	0.46
221.894	0.8
222.27	0.15
222.647	-1.06
223.023	-1.79
223.4	-1.73
223.776	-0.59
224.153	-0.65
224.529	-0.51
224.905	0.1
225.282	0.54
225.658	0.55
226.034	0.48
226.41	0.38
226.786	0.34
227.162	0.94
227.538	1.17
227.914	1.1
228.29	1.07
228.666	1.18
229.042	0.69
229.418	1.15
229.793	0.73
230.169	0.58
230.545	0.68
230.92	0.66
231.296	0.48
231.672	0.44
232.047	0.7
232.422	0.75
232.798	0.98
233.173	0.89
233.549	1.1
233.924	1.32
234.299	1.29
234.674	1.3
235.05	1.3
235.425	1.45
235.8	1.53
236.175	1.6
236.55	1.54
236.925	1.49
237.3	1.54
237.675	1.65
238.049	1.63
238.424	1.64
238.799	1.59
239.174	1.63
239.548	1.76
239.923	1.79
240.297	1.69
240.672	1.79
241.046	1.89
241.421	1.91
241.795	1.97
242.17	1.84
242.544	1.84
242.918	1.8
243.293	1.69
243.667	1.6
244.041	1.61
244.415	1.61
244.789	1.6
245.163	1.58
245.537	1.6
245.911	1.67
246.285	1.63
246.659	1.59
247.033	1.57
247.406	1.66
247.78	1.72
248.154	1.71
248.528	1.78
248.901	1.76
249.275	1.72
249.648	1.84
250.022	1.84
250.395	1.76
250.769	1.75
251.142	1.78
251.515	1.83
251.888	1.79
252.262	1.83
252.635	1.87
253.008	1.9
253.381	1.87
253.754	1.87
254.127	1.87
254.5	1.86
254.873	1.84
255.246	1.79
255.619	1.84
255.992	1.85
256.364	1.86
256.737	1.81
257.11	1.79
257.483	1.79
257.855	1.79
258.228	1.81
258.6	1.81
258.973	1.83
259.345	1.86
259.718	1.88
260.09	1.85
260.462	1.79
260.834	1.81
261.207	1.86
261.579	1.82
261.951	1.83
262.323	1.81
262.695	1.86
263.067	1.88
263.439	1.89
263.811	1.91
264.183	1.9
264.555	1.91
264.927	1.89
265.298	1.88
265.67	1.84
266.042	1.83
266.413	1.82
266.785	1.83
267.156	1.79
267.528	1.79
267.899	1.77
268.271	1.74
268.642	1.67
269.013	1.67
269.385	1.69
269.756	1.68
270.127	1.59
270.498	1.58
270.87	1.6
271.241	1.57
271.612	1.57
271.983	1.54
272.354	1.51
272.724	1.5
273.095	1.52
273.466	1.46
273.837	1.47
274.208	1.49
274.578	1.47
274.949	1.51
275.32	1.48
275.69	1.43
276.061	1.36
276.431	1.34
276.802	1.29
277.172	1.31
277.542	1.29
277.913	1.28
278.283	1.3
278.653	1.3
279.023	1.3
279.394	1.39
279.764	1.38
280.134	1.37
280.504	1.34
280.874	1.34
281.244	1.34
281.614	1.3
281.983	1.26
282.353	1.27
282.723	1.36
283.093	1.33
283.462	1.37
283.832	1.4
284.202	1.39
284.571	1.41
284.941	1.44
285.31	1.54
285.68	1.58
286.049	1.54
286.418	1.52
286.788	1.55
287.157	1.56
287.526	1.55
287.895	1.59
288.264	1.61
288.633	1.53
289.002	1.51
289.371	1.55
289.74	1.56
290.109	1.54
290.478	1.52
290.847	1.55
291.216	1.61
291.585	1.52
291.953	1.44
292.322	1.44
292.691	1.42
293.059	1.35
293.428	1.33
293.796	1.37
294.165	1.37
294.533	1.31
294.901	1.3
295.27	1.36
295.638	1.36
296.006	1.28
296.374	1.26
296.743	1.24
297.111	1.15
297.479	1.13
297.847	1.16
298.215	1.15
298.583	1.12
298.95	1.12
299.318	1.15
299.686	1.11
300.054	1.09
300.422	1.09
300.789	1.11
301.157	1.11
301.525	1.1
301.892	1.11
302.26	1.1
302.627	1.13
302.994	1.09
303.362	1.09
303.729	1.14
304.097	1.12
304.464	1.1
304.831	1.1
305.198	1.14
305.565	1.18
305.932	1.17
306.299	1.15
306.666	1.13
307.033	1.12
307.4	1.17
307.767	1.11
308.134	1.07
308.501	1.09
308.867	1.11
309.234	1.13
309.601	1.12
309.967	1.1
310.334	1.13
310.701	1.12
311.067	1.1
311.433	1.16
311.8	1.09
312.166	1.11
312.533	1.12
312.899	1.06
313.265	1.09
313.631	1.1
313.997	1.1
314.363	1.07
314.729	1.09
315.096	1.12
315.461	1.14
315.827	1.16
316.193	1.15
316.559	1.16
316.925	1.18
317.291	1.23
317.656	1.2
318.022	1.2
318.388	1.23
318.753	1.16
319.119	1.19
319.484	1.23
319.85	1.23
320.215	1.23
320.581	1.19
320.946	1.2
321.311	1.18
321.676	1.18
322.042	1.19
322.407	1.12
322.772	1.15
323.137	1.16
323.502	1.21
323.867	1.19
324.232	1.14
324.597	1.18
324.962	1.15
325.327	1.2
325.691	1.17
326.056	1.15
326.421	1.16
326.785	1.14
327.15	1.11
327.514	1.08
327.879	1.13
328.243	1.12
328.608	1.09
328.972	1.09
329.337	1.07
329.701	1.08
330.065	1.12
330.429	1.12
330.794	1.12
331.158	1.16
331.522	1.2
331.886	1.14
332.25	1.16
332.614	1.12
332.978	1.08
333.342	1.12
333.705	1.12
334.069	1.11
334.433	1.06
334.797	1.04
335.16	1.06
335.524	1.09
335.887	1.06
336.251	1.08
336.614	1.05
336.978	1.05
337.341	1.07
337.705	1.02
338.068	1.08
338.431	1.09
338.794	1.06
339.158	1.06
339.521	1.08
339.884	1.04
340.247	0.97
340.61	0.97
340.973	1.01
341.336	0.95
341.699	0.9
342.062	0.93
342.424	0.93
342.787	0.93
343.15	0.93
343.512	0.95
343.875	0.93
344.238	0.95
344.6	0.9
344.963	0.98
345.325	0.96
345.688	0.93
346.05	0.92
346.412	0.93
346.775	0.93
347.137	0.84
347.499	0.8
347.861	0.85
348.223	0.77
348.585	0.72
348.947	0.75
349.309	0.76
349.671	0.8
350.033	0.75
350.395	0.8
350.757	0.85
351.118	0.81
351.48	0.77
351.842	0.73
352.203	0.72
352.565	0.7
352.927	0.79
353.288	0.73
353.65	0.76
354.011	0.75
354.372	0.83
354.734	0.88
355.095	0.87
355.456	0.86
355.817	0.85
356.179	0.86
356.54	0.88
356.901	0.83
357.262	0.88
357.623	0.92
357.984	1
358.345	1.02
358.705	0.97
359.066	0.92
359.427	0.87
359.788	0.84
360.148	0.91
360.509	0.95
360.87	1.02
361.23	1.04
361.591	1.09
361.951	1
362.312	1
362.672	0.98
363.032	0.95
363.393	0.87
363.753	0.84
364.113	0.81
364.473	0.79
364.833	0.85
365.193	0.83
365.553	0.8
365.913	0.78
366.273	0.77
366.633	0.75
366.993	0.65
367.353	0.6
367.713	0.58
368.072	0.6
368.432	0.65
368.792	0.56
369.151	0.47
369.511	0.48
369.87	0.41
370.23	0.45
370.589	0.39
370.949	0.43
371.308	0.45
371.667	0.46
372.027	0.45
372.386	0.48
372.745	0.49
373.104	0.54
373.463	0.53
373.822	0.52
374.181	0.5
374.54	0.5
374.899	0.58
375.258	0.56
375.617	0.58
375.975	0.61
376.334	0.62
376.693	0.7
377.052	0.76
377.41	0.7
377.769	0.78
378.127	0.8
378.486	0.68
378.844	0.66
379.202	0.64
379.561	0.66
379.919	0.63
380.277	0.65
380.636	0.63
380.994	0.64
381.352	0.61
381.71	0.6
382.068	0.61
382.426	0.63
382.784	0.61
383.142	0.63
383.5	0.63
383.857	0.64
384.215	0.66
384.573	0.62
384.931	0.62
385.288	0.57
385.646	0.49
386.003	0.43
386.361	0.42
386.718	0.42
387.076	0.38
387.433	0.44
387.791	0.47
388.148	0.44
388.505	0.47
388.862	0.47
389.22	0.48
389.577	0.55
389.934	0.54
390.291	0.52
390.648	0.52
391.005	0.52
391.362	0.47
391.718	0.51
392.075	0.46
392.432	0.49
392.789	0.47
393.145	0.44
393.502	0.44
393.859	0.46
394.215	0.5
394.572	0.55
394.928	0.55
395.285	0.53
395.641	0.52
395.997	0.65
396.354	0.69
396.71	0.71
397.066	0.65
397.422	0.68
397.778	0.64
398.134	0.62
398.491	0.5
398.846	0.48
399.202	0.51
399.558	0.47
399.914	0.48
400.27	0.46
400.626	0.39
400.981	0.42
401.337	0.43
401.693	0.43
402.048	0.44
402.404	0.45
402.759	0.46
403.115	0.43
403.47	0.37
403.826	0.34
404.181	0.3
404.536	0.27
404.892	0.16
405.247	0.12
405.602	0.05
405.957	0.12
406.312	0.02
406.667	0.05
407.022	0.07
407.377	0.1
407.732	0.11
408.087	0.12
408.442	0.13
408.796	0.06
409.151	0.15
409.506	0.2
409.86	0.23
410.215	0.21
410.57	0.17
410.924	0.22
411.279	0.24
411.633	0.15
411.987	0.12
412.342	0.17
412.696	0.23
413.05	0.36
413.404	0.43
413.758	0.53
414.113	0.55
414.467	0.61
414.821	0.57
415.175	0.66
415.529	0.62
415.882	0.57
416.236	0.58
416.59	0.6
416.944	0.64
417.298	0.78
417.651	0.81
418.005	0.87
418.358	0.89
418.712	0.93
419.065	0.9
419.419	0.9
419.772	0.79
420.126	0.86
420.479	0.94
420.832	0.97
421.185	1.1
421.539	1.03
421.892	1
422.245	1.02
422.598	0.97
422.951	0.97
423.304	0.99
423.657	1.06
424.01	1.02
424.363	1.04
424.715	1.1
425.068	1.13
425.421	1.08
425.773	1.06
426.126	1.09
426.479	1.1
426.831	1.01
427.184	0.96
427.536	0.97
427.889	0.97
428.241	0.93
428.593	0.99
428.945	1.04
429.298	1.1
429.65	1.08
430.002	0.93
430.354	1.02
430.706	1.05
431.058	0.99
431.41	0.91
431.762	0.85
432.114	0.8
432.466	0.77
432.817	0.81
433.169	0.82
433.521	0.73
433.872	0.72
434.224	0.73
434.576	0.69
434.927	0.57
435.279	0.54
435.63	0.53
435.981	0.59
436.333	0.59
436.684	0.64
437.035	0.69
437.387	0.73
437.738	0.59
438.089	0.59
438.44	0.62
438.791	0.56
439.142	0.5
439.493	0.47
439.844	0.56
440.195	0.64
440.545	0.71
440.896	0.8
441.247	0.82
441.598	0.73
441.948	0.75
442.299	0.79
442.649	0.79
443	0.78
443.35	0.73
443.701	0.77
444.051	0.79
444.401	0.74
444.752	0.7
445.102	0.68
445.452	0.58
445.802	0.59
446.152	0.49
446.502	0.52
446.852	0.37
447.202	0.4
447.552	0.46
447.902	0.47
448.252	0.38
448.602	0.94
448.952	0.88
449.301	0.87
449.651	0.85
450.001	0.82
450.35	0.82
450.7	0.8
451.049	0.8
451.399	0.89
451.748	0.94
452.097	1.09
452.447	0.98
452.796	1.07
453.145	1.18
453.494	1.14
453.843	1.1
454.193	1.19
454.542	1.18
454.891	1.27
455.239	1.22
455.588	1.35
455.937	1.27
456.286	1.26
456.635	1.23
456.984	1.25
457.332	0.56
457.681	0.63
458.03	0.67
458.378	0.55
458.727	0.5
459.075	0.54
459.423	0.64
459.772	0.66
460.12	0.49
460.468	0.48
460.817	0.45
461.165	0.55
461.513	0.48
461.861	0.42
462.209	0.5
462.557	0.57
462.905	0.53
463.253	0.53
463.601	0.56
463.949	0.62
464.297	0.54
464.644	0.65
464.992	0.65
465.34	0.69
465.687	0.78
466.035	0.78
466.383	0.78
466.73	0.72
467.078	0.79
467.425	0.84
467.772	0.93
468.12	0.86
468.467	0.76
468.814	0.87
469.161	0.85
469.508	0.89
469.856	0.84
470.203	0.81
470.55	0.77
470.897	0.79
471.243	0.7
471.59	0.77
471.937	0.77
472.284	0.71
472.631	0.66
472.977	0.74
473.324	0.74
473.671	0.72
474.017	0.68
474.364	0.62
474.71	0.61
475.057	0.57
475.403	0.59
475.749	0.63
476.096	0.68
476.442	0.63
476.788	0.67
477.134	0.76
477.48	0.76
477.826	0.79
478.172	0.69
478.518	0.79
478.864	0.88
479.21	0.96
479.556	0.92
479.902	0.98
480.248	0.98
480.593	1.02
480.939	1
481.285	1.04
481.63	1.01
481.976	0.99
482.321	1.02
482.667	1.08
483.012	1.09
483.357	1.17
483.703	1.21
484.048	1.31
484.393	1.38
484.738	1.36
485.084	1.36
485.429	1.33
485.774	1.32
486.119	1.4
486.464	1.39
486.808	1.44
487.153	1.46
487.498	1.47
487.843	1.44
488.188	1.57
488.532	1.64
488.877	1.74
489.222	1.83
489.566	1.98
489.911	2.1
490.255	2.28
490.6	2.44
490.944	2.61
491.288	2.76
491.633	2.98
491.977	3.13
492.321	3.42
492.665	3.55
493.009	3.75
493.353	4
493.697	4.35
494.041	4.59
494.385	4.97
494.729	5.22
495.073	5.63
495.417	6.01
495.76	6.37
496.104	6.75
496.448	7.17
496.791	7.61
497.135	8
497.479	8.44
497.822	8.93
498.165	9.42
498.509	9.96
498.852	10.44
499.196	11.05
499.539	11.59
499.882	12.18
500.225	12.77
500.568	13.36
500.911	13.91
501.254	14.47
501.597	15.07
501.94	15.67
502.283	16.16
502.626	16.82
502.969	17.39
503.312	18
503.654	18.57
503.997	19.1
504.34	19.67
504.682	20.26
505.025	20.93
505.367	21.56
505.71	22.15
506.052	22.71
506.395	23.32
506.737	24.01
507.079	24.57
507.421	25.25
507.764	25.79
508.106	26.34
508.448	26.94
508.79	27.51
509.132	28.04
509.474	28.59
509.816	29.15
510.158	29.7
510.499	30.24
510.841	30.82
511.183	31.37
511.525	31.84
511.866	32.36
512.208	32.84
512.549	33.42
512.891	34
513.232	34.6
513.574	35.15
513.915	35.46
514.256	36.06
514.598	36.58
514.939	37.07
515.28	37.43
515.621	37.96
515.962	38.37
516.303	38.94
516.644	39.42
516.985	39.84
517.326	40.28
517.667	40.71
518.008	41.04
518.349	41.54
518.69	42.02
519.03	42.46
519.371	42.93
519.712	43.21
520.052	43.6
520.393	43.87
520.733	44.29
521.074	44.64
521.414	44.97
521.754	45.26
522.095	45.46
522.435	45.91
522.775	46.17
523.115	46.52
523.455	46.69
523.795	47.06
524.135	47.28
524.475	47.43
524.815	47.62
525.155	48.07
525.495	48.26
525.835	48.46
526.175	48.69
526.514	48.97
526.854	49.06
527.194	49.14
527.533	49.33
527.873	49.51
528.212	49.78
528.552	50.04
528.891	50.38
529.23	50.52
529.57	50.89
529.909	51.15
530.248	51.22
530.587	51.65
530.927	51.8
531.266	52.04
531.605	52.19
531.944	52.38
532.283	52.51
532.621	52.61
532.96	52.98
533.299	53.09
533.638	53.06
533.977	53.25
534.315	53.45
534.654	53.63
534.992	53.81
535.331	54.09
535.67	54.26
536.008	54.44
536.346	54.55
536.685	54.64
537.023	54.76
537.361	54.86
537.7	55.04
538.038	54.95
538.376	54.92
538.714	55.24
539.052	55.15
539.39	55.28
539.728	55.28
540.066	55.39
540.404	55.49
540.741	55.55
541.079	55.67
541.417	55.7
541.755	55.86
542.092	56.03
542.43	56.06
542.767	56.14
543.105	56.09
543.442	56.12
543.78	56.15
544.117	56.16
544.454	56.27
544.792	56.38
545.129	56.51
545.466	56.54
545.803	56.6
546.14	56.58
546.477	56.76
546.814	56.97
547.151	56.74
547.488	56.87
547.825	56.92
548.162	56.98
548.499	57.04
548.835	57.19
549.172	57.36
549.509	57.6
549.845	57.7
550.182	57.59
550.518	57.49
550.855	57.66
551.191	57.64
551.528	57.7
551.864	57.78
552.2	57.87
552.537	58.03
552.873	58.01
553.209	58.02
553.545	57.93
553.881	58.01
554.217	58.09
554.553	58.27
554.889	58.31
555.225	58.33
555.561	58.49
555.896	58.61
556.232	58.67
556.568	58.82
556.903	58.78
557.239	58.72
557.575	58.68
557.91	58.6
558.245	58.41
558.581	58.59
558.916	58.81
559.252	58.88
559.587	59.05
559.922	59.21
560.257	59.29
560.592	59.26
560.928	59.3
561.263	59.46
561.598	59.52
561.933	59.76
562.267	59.81
562.602	59.81
562.937	59.85
563.272	59.88
563.607	59.93
563.941	60.16
564.276	60.04
564.611	60.11
564.945	60.22
565.28	60.47
565.614	60.41
565.949	60.44
566.283	60.5
566.617	60.82
566.951	60.95
567.286	61.06
567.62	61.03
567.954	61.16
568.288	61.25
568.622	61.19
568.956	61.23
569.29	61.35
569.624	61.2
569.958	61.37
570.292	61.33
570.626	61.45
570.959	61.68
571.293	61.75
571.627	61.92
571.96	61.9
572.294	61.88
572.627	61.85
572.961	61.85
573.294	61.79
573.627	61.8
573.961	61.9
574.294	61.99
574.627	62.17
574.961	62.22
575.294	62.16
575.627	62.29
575.96	62.29
576.293	62.12
576.626	61.97
576.959	62.05
577.292	62.09
577.624	62.12
577.957	62.25
578.29	62.35
578.623	62.46
578.955	62.55
579.288	62.51
579.62	62.44
579.953	62.31
580.285	62.37
580.618	62.47
580.95	62.64
581.282	62.72
581.615	62.85
581.947	62.76
582.279	62.95
582.611	62.92
582.943	62.82
583.275	62.71
583.607	62.88
583.939	62.73
584.271	62.78
584.603	62.98
584.935	63.24
585.267	63.25
585.598	63.29
585.93	63.43
586.262	63.53
586.593	63.37
586.925	63.32
587.256	63.08
587.588	63.01
587.919	63.14
588.25	63.27
588.582	63.37
588.913	63.36
589.244	63.38
589.575	63.46
589.907	63.29
590.238	63.39
590.569	63.33
590.9	63.47
591.231	63.46
591.562	63.41
591.892	63.38
592.223	63.51
592.554	63.59
592.885	63.64
593.215	63.53
593.546	63.53
593.877	63.49
594.207	63.25
594.538	63.12
594.868	63.06
595.198	63.13
595.529	63.22
595.859	63.12
596.189	63.29
596.52	63.38
596.85	63.41
597.18	63.36
597.51	63.37
597.84	63.23
598.17	63.49
598.5	63.52
598.83	63.47
599.16	63.48
599.489	63.56
599.819	63.79
600.149	63.64
600.479	63.5
600.808	63.48
601.138	63.38
601.467	63.38
601.797	63.48
602.126	63.5
602.456	63.7
602.785	63.8
603.114	63.9
603.443	63.95
603.773	64.06
604.102	64.3
604.431	64.18
604.76	64.08
605.089	64.01
605.418	64.05
605.747	64.04
606.076	64.09
606.405	63.85
606.733	63.87
607.062	63.92
607.391	63.87
607.72	63.65
608.048	63.49
608.377	63.55
608.705	63.62
609.034	63.38
609.362	63.46
609.69	63.63
610.019	63.63
610.347	63.74
610.675	63.77
611.004	63.73
611.332	63.74
611.66	63.78
611.988	63.66
612.316	63.67
612.644	63.43
612.972	63.4
613.3	63.37
613.627	63.22
613.955	63.26
614.283	63.25
614.611	63.29
614.938	63.42
615.266	63.45
615.593	63.47
615.921	63.61
616.248	63.97
616.576	63.99
616.903	64.13
617.23	64.41
617.558	64.23
617.885	64.09
618.212	63.91
618.539	63.96
618.866	63.41
619.193	63.21
619.52	63.33
619.847	63.38
620.174	63.42
620.501	63.2
620.828	63.33
621.155	63.35
621.481	63.24
621.808	63.33
622.135	63.4
622.461	63.32
622.788	63.54
623.114	63.15
623.441	62.68
623.767	62.63
624.093	62.66
624.42	62.04
624.746	62.23
625.072	62.37
625.398	62.42
625.725	62.77
626.051	62.83
626.377	63.24
626.703	62.72
627.029	63.28
627.354	63.42
627.68	63
628.006	62.96
628.332	63
628.658	63.07
628.983	63.24
629.309	63.25
629.634	63.22
629.96	63.14
630.285	62.91
630.611	63.16
630.936	63.09
631.262	63.91
631.587	64.19
631.912	64.31
632.237	64.72
632.562	65.46
632.887	65.34
633.213	65.02
633.538	65.33
633.863	65.09
634.187	64.86
634.512	64.13
634.837	64.51
635.162	64.21
635.487	64.3
635.811	64.75
636.136	64.51
636.461	64.16
636.785	64.25
637.11	64.43
637.434	64.3
637.758	64.31
638.083	63.84
638.407	63.76
638.731	63.53
639.056	63.07
639.38	62.47
639.704	62.8
640.028	62.84
640.352	62.88
640.676	62.54
641	62.28
641.324	62.17
641.648	61.77
641.972	62
642.295	62.29
642.619	62.76
642.943	62.8
643.266	62.73
643.59	62.51
643.913	62.29
644.237	62.41
644.56	62.13
644.884	62.61
645.207	62.32
645.53	62.22
645.854	62.92
646.177	63.44
646.5	63.9
646.823	64.41
647.146	64.4
647.469	64.88
647.792	64.37
648.115	64.58
648.438	64.52
648.761	66.54
649.084	67.56
649.406	67.29
649.729	66.1
650.052	65.48
650.374	64.94
650.697	64.81
651.019	64.79
651.342	64.71
651.664	64.75
651.987	64.74
652.309	64.67
652.631	64.92
652.953	64.8
653.276	64.72
653.598	64.85
653.92	64.83
654.242	64.89
654.564	64.82
654.886	64.62
655.208	64.73
655.53	64.53
655.851	64.64
656.173	64.7
656.495	64.64
656.816	63.62
657.138	62.57
657.46	61.33
657.781	61.29
658.103	61.27
658.424	62.17
658.746	62.15
659.067	62.01
659.388	61.99
659.709	62.48
660.031	62.77
660.352	62.42
660.673	61.72
660.994	61.46
661.315	62.31
661.636	62.45
661.957	61.68
662.278	61.84
662.599	61.73
662.919	61.92
663.24	62.74
663.561	62.76
663.881	62.06
664.202	61.46
664.523	61.49
664.843	61.33
665.164	61.12
665.484	61.74
665.804	61.91
666.125	62.15
666.445	62.41
666.765	62.58
667.085	62.73
667.405	63.4
667.726	63.4
668.046	62.99
668.366	63.02
668.686	63
669.005	62.3
669.325	61.75
669.645	60.73
669.965	60.89
670.285	60.6
670.604	60.71
670.924	60.61
671.243	60.09
671.563	60
671.882	60.71
672.202	60.59
672.521	60.98
672.841	61.1
673.16	60.9
673.479	60.99
673.798	60.71
674.117	61.13
674.437	60.71
674.756	61.13
675.075	61.42
675.394	60.98
675.713	60.76
676.031	61.02
676.35	61.31
676.669	61.79
676.988	62.48
677.306	62.14
677.625	63.7
677.944	64.01
678.262	64.19
678.581	64.24
678.899	64.66
679.218	65.32
679.536	65.24
679.854	64.94
680.172	64.65
680.491	64.31
680.809	64.45
681.127	64.55
681.445	64.26
681.763	64.69
682.081	64.15
682.399	63.96
682.717	63.24
683.035	63.41
683.352	63.68
683.67	63.92
683.988	63.84
684.306	63.96
684.623	63.67
684.941	64.36
685.258	64.83
685.576	63.9
685.893	63.73
686.211	63.97
686.528	64.17
686.845	64.15
687.162	63.32
687.48	63.35
687.797	64.65
688.114	64.75
688.431	63.93
688.748	63.73
689.065	63.73
689.382	63.91
689.699	64.29
690.015	64.94
690.332	65.62
690.649	66.31
690.966	66.16
691.282	66.21
691.599	65.74
691.915	65.49
692.232	65.1
692.548	65.72
692.865	65.23
693.181	65.54
693.497	65.34
693.813	65.76
694.13	65.84
694.446	65.02
694.762	65.12
695.078	64.71
695.394	64.9
695.71	63.56
696.026	63.8
696.342	64.54
696.658	65.35
696.973	66.19
697.289	65.93
697.605	64.77
697.92	65.22
698.236	65.57
698.551	64.81
698.867	64.31
699.182	64.22
699.498	64.19
699.813	65.11
700.128	66.69
700.444	66.74
700.759	67.22
701.074	66.63
701.389	67.04
701.704	65.38
702.019	64.77
702.334	66.61
702.649	66.17
702.964	67.11
703.279	67.46
703.594	67.89
703.908	67.64
704.223	67.88
704.538	66.66
704.852	65.43
705.167	65.22
705.481	65.54
705.796	65.08
706.11	63.33
706.425	63.63
706.739	63.45
707.053	63.79
707.368	64.65
707.682	63.57
707.996	63.03
708.31	63.03
708.624	62.82
708.938	62.79
709.252	63.46
709.566	64.53
709.88	64.8
710.193	62.26
710.507	62.9
710.821	63.2
711.135	61.67
711.448	61.51
711.762	61.45
712.075	61.14
712.389	61.83
712.702	62.72
713.015	63.68
713.329	64.35
713.642	65.02
713.955	65.82
714.269	66.26
714.582	66.66
714.895	64.5
715.208	63.57
715.521	64.04
715.834	64.01
716.147	63.95
716.459	63.57
716.772	63.47
717.085	62.95
717.398	62.4
717.71	62.05
718.023	62.6
718.336	61.31
718.648	60.39
718.961	61.53
719.273	60.61
719.585	61.79
719.898	62.95
720.21	62.29
720.522	61.04
720.834	61.24
721.147	61.1
721.459	58.56
721.771	59.04
722.083	58.35
722.395	60.48
722.707	60.98
723.019	59.6
723.33	58.9
723.642	59.03
723.954	58.18
724.265	57.54
724.577	57.03
724.889	56.87
725.2	57.99
725.512	58.66
725.823	58.86
726.135	59.5
726.446	59.58
726.757	60.46
727.068	61.53
727.38	60.9
727.691	60.57
728.002	61.07
728.313	62.84
728.624	61.78
728.935	61.53
729.246	62.79
729.557	63.06
729.867	63.38
730.178	62.86
730.489	64.64
730.8	66.39
731.11	67.59
731.421	67.09
731.731	67.23
732.042	67.39
732.352	67.23
732.663	66.85
732.973	66.64
733.283	65.95
733.594	66.68
733.904	66.39
734.214	66.91
734.524	66.1
734.834	66.61
735.144	66.2
735.454	65.79
735.764	66.31
736.074	64.81
736.384	64.75
736.694	65.35
737.003	64.74
737.313	65.59
737.623	65.2
737.932	64.56
738.242	63.14
738.551	62.6
738.861	62.25
739.17	61.89
739.479	62.06
739.789	63.11
740.098	64.67
740.407	66.44
740.716	67.84
741.025	69.43
741.334	69.08
741.643	71.27
741.952	72.15
742.261	72.57
742.57	72.07
742.879	73.28
743.188	74.64
743.497	74.3
743.805	75.76
744.114	77.45
744.422	74.86
744.731	77.52
745.04	76.45
745.348	78.4
745.656	76.73
745.965	78.13
746.273	76.26
746.581	75.61
746.889	74.67
747.198	73.3
747.506	72.58
747.814	72.13
748.122	70.44
748.43	66.22
748.738	65.51
749.046	66.29
749.353	65.36
749.661	63.54
749.969	63.56
750.277	63.37
750.584	64.25
750.892	63.94
751.199	65.43
751.507	65.57
751.814	63.8
752.122	65.89
752.429	65.96
752.736	66.65
753.044	64.19
753.351	64.18
753.658	62.55
753.965	62.59
754.272	63.14
754.579	63.48
754.886	64.06
755.193	64.69
755.5	63.84
755.807	63.71
756.114	63.75
756.42	63.44
756.727	62.67
757.034	63.12
757.34	62.21
757.647	60.58
757.953	58.33
758.26	56.55
758.566	55.53
758.872	54.68
759.179	55.53
759.485	55.59
759.791	55.61
760.097	53.17
760.403	50.86
760.709	52.33
761.015	51.89
761.321	53.17
761.627	52.54
761.933	49.72
762.239	49.83
762.545	49.95
762.851	49.1
763.156	48.3
763.462	49.51
763.767	51.37
764.073	50.55
764.378	50.87
764.684	51.94
764.989	53.12
765.295	54.59
765.6	58.29
765.905	61.32
766.21	61.9
766.515	59.81
766.821	56.82
767.126	60.31
767.431	61.65
767.736	64.28
768.041	65.91
768.345	64.59
768.65	65.48
768.955	62.11
769.26	64.06
769.564	67.04
769.869	67.9
770.174	68.35
770.478	71.62
770.783	71.95
771.087	68.58
771.391	75.88
771.696	88.64
772	97.15
772.304	91.64
772.608	92
772.913	100.7
773.217	101.32
773.521	94.2
773.825	86.83
774.129	87.34
774.433	90.1
774.736	81.61
775.04	78.14
775.344	72.74
775.648	70.1
775.951	71.69
776.255	69.36
776.559	70.71
776.862	67.46
777.166	72.24
777.469	74.45
777.772	77.57
778.076	75.26
778.379	82.25
778.682	79.01
778.985	71.45
779.289	61.21
779.592	62.34
779.895	63.16
780.198	66
780.501	60.59
780.804	57.93
781.106	61.13
781.409	61
781.712	60.64
782.015	49.54
782.317	50.06
782.62	59.06
782.923	65.15
783.225	58.53
783.527	65.22
783.83	63.07
784.132	77.78
784.435	90.26
784.737	85.22
785.039	75.46
785.341	64.39
785.643	70.25
785.945	54.19
786.248	56.43
786.55	69.97
786.851	77.53
787.153	67.98
787.455	71.45
787.757	75.1
788.059	78.25
788.36	68.06
788.662	71.38
788.964	79.37
789.265	78.12
789.567	101.42
789.868	99.6
790.17	89.48
790.471	78.52
790.772	93.31
791.074	81.89
791.375	76.27
791.676	69.33
791.977	50.25
792.278	42.26
792.579	52.76
792.88	53.13
793.181	42.53
793.482	45.98
793.783	34.22
794.083	26.69
794.384	21.2
794.685	12.69
794.986	-20.29
795.286	-49.47
795.587	-41.99
795.887	-12.01
796.188	-5.33
796.488	-9.74
796.788	-12.64
797.089	-10.95
797.389	-9.35
797.689	-11.81
797.989	-16.95
798.289	-36.6
798.589	-15.63
798.889	-16.95
799.189	-15.6
799.489	-3.59
799.789	-2.69
800.089	-20.83
800.389	-20.05
800.688	-38.07
800.988	-33.95
801.288	-24.12
801.587	-39.54
801.887	-54.72
802.186	-62.32
802.486	-33.82
802.785	-40.93
803.085	-40.49
803.384	-42.02
803.683	-65.1
803.982	-61.08
804.281	-65.91
804.58	-96.43
804.879	-282.76
805.178	-398.67
805.477	-183.67
805.776	-115.49
806.075	-164.77
806.374	-62.07
806.673	-105.16
806.971	-203.98
807.27	-1362.96
807.569	-1747.13
807.867	-672.27
808.166	18.11
808.464	70.03
808.763	47.47
809.061	-10.88
809.359	-37.98
809.658	-118.13
809.956	-91.32
810.254	-87.12
810.552	-35
810.85	-29.54
811.148	-6.45
811.446	-5.53
811.744	-24.87
812.042	-0.66
812.34	-25.93
812.638	-61.63
812.935	-54.09
813.233	-35.19
813.531	-46.04
813.828	-2.76
814.126	-5.85
814.423	-38.57
814.721	-41.56
815.018	-28.36
815.316	51.36
815.613	130.07
815.91	120.59
816.207	105.41
816.504	124.16
816.802	206.54
817.099	173.17
817.396	256.44
817.693	231.95
817.99	221.78
818.286	124.6
818.583	133.63
818.88	-133.07
819.177	-20.54
819.473	-254.61
819.77	-225.77
820.067	-652.74
820.363	-1621.92
820.66	463.39
820.956	-444.73
821.252	4389.74
821.549	-1938.69
821.845	-1520.66
822.141	1025.15
822.437	318.35
822.734	555.63
823.03	-1211.83
823.326	-310.13
823.622	-365.33
823.918	-2919.3
824.213	-569.4
824.509	-474.07
824.805	-40.51
825.101	73.53
825.397	111.16
825.692	255.34
825.988	164.14
826.283	260.83
826.579	578.28
826.874	-3666.02
827.17	-7876.92
827.465	975.06
827.76	529.67
828.056	532.09
828.351	1773.49
828.646	503.44
828.941	749.55
829.236	633.53
829.531	351.22
829.826	243.56
830.121	218.66
830.416	238.51
830.711	200.81
831.006	193.19
831.3	190.74
831.595	128.06
831.89	101.93
832.184	69.78
832.479	68.36
832.773	70.53
833.068	81.3
833.362	66.48
833.656	53.74
833.951	46.3
834.245	49.89
834.539	71.79
834.833	68.74
835.127	53.81
835.421	35.89
835.715	46.14
836.009	34.26
836.303	40.39
836.597	36.39
836.891	51.17
837.185	40.45
837.478	40.87
837.772	51.51
838.066	55.74
838.359	61.27
838.653	69.62
838.946	76.38
839.24	87.11
839.533	82
839.826	107.25
840.119	114.5
840.413	50.26
840.706	130.64
840.999	145.38
841.292	167.36
841.585	154.77
841.878	116.16
842.171	131.61
842.464	198.89
842.757	207.99
843.049	247.56
843.342	187.64
843.635	179.99
843.927	234.64
844.22	206.02
844.513	268.17
844.805	515.64
845.098	700.24
845.39	971.29
845.682	780.05
845.975	1068.68
846.267	351.07
846.559	254.21
846.851	237.8
847.143	185.9
847.435	243.75
847.727	269.1
848.019	322.52
848.311	558.73
848.603	1009.44
848.895	-469.72
849.186	-71.6
849.478	-2782.61
849.77	233.43
850.061	556.22
850.353	-13.45
850.645	56.09
850.936	-42.42
851.227	-9828.57
851.519	-241.8
851.81	412.27
852.101	368.12
852.393	1039.63
852.684	-656.95
852.975	-210.99
853.266	-128.59
853.557	-108.01
853.848	-61.22
854.139	-16.97
854.43	-32.97
854.72	-17.62
855.011	-108.08
855.302	-37.67
855.593	-101.21
855.883	-223.59
856.174	-241.33
856.464	-1433.88
856.755	2188.11
857.045	1116.18
857.336	988.37
857.626	-4119.54
857.916	3305.79
858.206	-16417.39
858.497	-372.74
858.787	-567.99
859.077	-661.1
859.367	-232.33
859.657	-328.85
859.947	-1370.06
860.237	1880.29
860.527	267.07
860.816	224.97
861.106	129.44
861.396	141.03
861.685	164.42
861.975	298.01
862.265	336.43
862.554	302.82
862.844	-1022.95
863.133	-754.37
863.422	-783.81
863.712	-182.67
864.001	0
864.29	12.32
864.579	0.99
864.868	-43.28
865.157	-28.89
865.446	-29.56
865.735	-106.47
866.024	-58.09
866.313	-6.67
866.602	-20
866.891	-46.08
867.179	-57.26
867.468	-48.35
