Data from T2_Reflection__107__20-04-40-137.txt Node

Date: Fri Jun 04 20:04:40 CEST 2021
User: mabdelazizm
Spectrometer: FLMS18565
Trigger mode: 0
Integration Time (sec): 2.000000E0
Scans to average: 1
Electric dark correction enabled: true
Nonlinearity correction enabled: false
Boxcar width: 12
XAxis mode: Wavelengths
Number of Pixels in Spectrum: 2048
>>>>>Begin Spectral Data<<<<<
179.071	-23.98
179.452	-20.68
179.833	-125.69
180.214	-92.31
180.595	-96.17
180.977	-161.6
181.358	-60.56
181.739	-18.44
182.12	40.2
182.501	-2.56
182.882	-3.62
183.262	-145.71
183.643	19.33
184.024	26.04
184.405	37.59
184.786	38.67
185.166	21.84
185.547	2.33
185.927	12.26
186.308	4.76
186.689	22.19
187.069	22.76
187.449	14.4
187.83	7.53
188.21	8.29
188.59	10.19
188.971	16.15
189.351	18
189.731	15.66
190.111	12.98
190.491	11.82
190.871	5.37
191.251	5.09
191.631	5.35
192.011	9.83
192.391	8.24
192.771	7.43
193.151	4.07
193.531	5.25
193.91	4.7
194.29	4.28
194.67	4.68
195.049	2.37
195.429	0.22
195.808	0.75
196.188	-3.87
196.567	-6.55
196.946	-3.04
197.326	-2.14
197.705	-2.36
198.084	-3.61
198.464	-5.38
198.843	-4.56
199.222	-4.2
199.601	-3.57
199.98	-3.85
200.359	-1.23
200.738	-0.34
201.117	-2.29
201.496	-7.33
201.875	-6.17
202.254	-3.98
202.632	-3.84
203.011	-4.79
203.39	-7.31
203.768	-6.23
204.147	-5.37
204.525	-6.33
204.904	-8.34
205.282	-7.55
205.661	-7.89
206.039	-4.7
206.418	-7.26
206.796	-4.46
207.174	-4.96
207.552	-3.5
207.931	-5.95
208.309	-5.24
208.687	-6.18
209.065	-3.15
209.443	-4.3
209.821	-6.68
210.199	-8.68
210.577	-9.15
210.954	-5.27
211.332	-6.34
211.71	-7.35
212.088	-6.28
212.465	-5.55
212.843	-3.27
213.221	-2.58
213.598	-0.83
213.976	-1.53
214.353	-0.89
214.731	-0.19
215.108	1.34
215.485	-0
215.863	-0.04
216.24	-2.36
216.617	-2.64
216.994	-2.43
217.371	-0.26
217.749	-0.43
218.126	-0.11
218.503	-2.18
218.88	-1.7
219.256	-1.15
219.633	-0.86
220.01	-0.43
220.387	0.05
220.764	-0.23
221.14	0.17
221.517	-0.53
221.894	-0.93
222.27	-0.39
222.647	-1
223.023	-1.92
223.4	-1.44
223.776	-0.4
224.153	-1.1
224.529	-1.83
224.905	-0.81
225.282	-0.42
225.658	-0.38
226.034	-0.31
226.41	-0.56
226.786	-1.26
227.162	-1.3
227.538	-1.2
227.914	-0.97
228.29	-1.11
228.666	-1.06
229.042	-1.1
229.418	-0.91
229.793	-1.23
230.169	-0.91
230.545	-1.07
230.92	-1.05
231.296	-0.82
231.672	-1.06
232.047	-1.06
232.422	-1.04
232.798	-0.78
233.173	-0.86
233.549	-0.72
233.924	-0.55
234.299	-0.65
234.674	-0.61
235.05	-0.58
235.425	-0.5
235.8	-0.34
236.175	-0.22
236.55	-0.16
236.925	-0.14
237.3	-0.09
237.675	0.01
238.049	0.01
238.424	0.08
238.799	0.12
239.174	0.24
239.548	0.2
239.923	0.27
240.297	0.23
240.672	0.21
241.046	0.31
241.421	0.37
241.795	0.37
242.17	0.25
242.544	0.3
242.918	0.24
243.293	0.17
243.667	0.14
244.041	0.13
244.415	0.23
244.789	0.17
245.163	0.1
245.537	0.13
245.911	0.14
246.285	0.12
246.659	0.14
247.033	0.16
247.406	0.19
247.78	0.19
248.154	0.12
248.528	0.11
248.901	0.09
249.275	0.05
249.648	0.12
250.022	0.08
250.395	0.04
250.769	0.02
251.142	0.08
251.515	0.1
251.888	0.05
252.262	0.1
252.635	0.17
253.008	0.16
253.381	0.14
253.754	0.08
254.127	0.12
254.5	0.13
254.873	0.13
255.246	0.11
255.619	0.12
255.992	0.1
256.364	0.07
256.737	0.06
257.11	0.04
257.483	0.07
257.855	0.07
258.228	0.09
258.6	0.11
258.973	0.15
259.345	0.22
259.718	0.2
260.09	0.16
260.462	0.1
260.834	0.15
261.207	0.21
261.579	0.21
261.951	0.21
262.323	0.15
262.695	0.15
263.067	0.17
263.439	0.21
263.811	0.24
264.183	0.23
264.555	0.22
264.927	0.2
265.298	0.2
265.67	0.15
266.042	0.16
266.413	0.18
266.785	0.14
267.156	0.12
267.528	0.11
267.899	0.13
268.271	0.12
268.642	0.03
269.013	0.04
269.385	0.09
269.756	0.12
270.127	0.04
270.498	0.02
270.87	-0.03
271.241	-0.02
271.612	0.04
271.983	0.07
272.354	0.04
272.724	0.01
273.095	-0.01
273.466	-0.02
273.837	0
274.208	0.01
274.578	-0.02
274.949	0.07
275.32	0.06
275.69	0.02
276.061	0.04
276.431	0
276.802	-0.03
277.172	-0.02
277.542	-0.05
277.913	-0.02
278.283	-0.02
278.653	-0.02
279.023	-0.09
279.394	-0.03
279.764	-0.06
280.134	-0.02
280.504	-0.04
280.874	-0.06
281.244	-0.11
281.614	-0.15
281.983	-0.22
282.353	-0.15
282.723	-0.08
283.093	-0.1
283.462	-0.07
283.832	-0.06
284.202	-0.06
284.571	-0.13
284.941	-0.12
285.31	-0.07
285.68	-0.05
286.049	-0.08
286.418	-0.11
286.788	-0.04
287.157	-0
287.526	0.01
287.895	-0
288.264	0.06
288.633	0.05
289.002	0.04
289.371	0.09
289.74	0.07
290.109	0.06
290.478	0.08
290.847	0.13
291.216	0.18
291.585	0.06
291.953	-0.04
292.322	0
292.691	-0.02
293.059	-0.06
293.428	-0.08
293.796	-0.05
294.165	-0.05
294.533	-0.07
294.901	-0.05
295.27	-0
295.638	-0
296.006	-0.12
296.374	-0.16
296.743	-0.22
297.111	-0.3
297.479	-0.29
297.847	-0.29
298.215	-0.27
298.583	-0.34
298.95	-0.34
299.318	-0.31
299.686	-0.35
300.054	-0.41
300.422	-0.41
300.789	-0.38
301.157	-0.37
301.525	-0.39
301.892	-0.37
302.26	-0.34
302.627	-0.32
302.994	-0.31
303.362	-0.28
303.729	-0.28
304.097	-0.31
304.464	-0.37
304.831	-0.38
305.198	-0.39
305.565	-0.37
305.932	-0.36
306.299	-0.27
306.666	-0.33
307.033	-0.36
307.4	-0.39
307.767	-0.43
308.134	-0.46
308.501	-0.46
308.867	-0.44
309.234	-0.39
309.601	-0.36
309.967	-0.4
310.334	-0.38
310.701	-0.41
311.067	-0.47
311.433	-0.46
311.8	-0.54
312.166	-0.5
312.533	-0.57
312.899	-0.61
313.265	-0.59
313.631	-0.53
313.997	-0.53
314.363	-0.52
314.729	-0.53
315.096	-0.54
315.461	-0.56
315.827	-0.49
316.193	-0.47
316.559	-0.41
316.925	-0.38
317.291	-0.35
317.656	-0.32
318.022	-0.33
318.388	-0.31
318.753	-0.34
319.119	-0.31
319.484	-0.21
319.85	-0.21
320.215	-0.21
320.581	-0.22
320.946	-0.18
321.311	-0.22
321.676	-0.18
322.042	-0.18
322.407	-0.23
322.772	-0.23
323.137	-0.19
323.502	-0.14
323.867	-0.12
324.232	-0.15
324.597	-0.15
324.962	-0.17
325.327	-0.2
325.691	-0.2
326.056	-0.2
326.421	-0.18
326.785	-0.22
327.15	-0.24
327.514	-0.28
327.879	-0.27
328.243	-0.3
328.608	-0.39
328.972	-0.35
329.337	-0.37
329.701	-0.36
330.065	-0.32
330.429	-0.27
330.794	-0.25
331.158	-0.2
331.522	-0.24
331.886	-0.27
332.25	-0.34
332.614	-0.39
332.978	-0.44
333.342	-0.38
333.705	-0.43
334.069	-0.5
334.433	-0.51
334.797	-0.57
335.16	-0.58
335.524	-0.57
335.887	-0.55
336.251	-0.5
336.614	-0.51
336.978	-0.49
337.341	-0.46
337.705	-0.48
338.068	-0.47
338.431	-0.43
338.794	-0.42
339.158	-0.47
339.521	-0.56
339.884	-0.64
340.247	-0.65
340.61	-0.6
340.973	-0.62
341.336	-0.57
341.699	-0.58
342.062	-0.6
342.424	-0.64
342.787	-0.6
343.15	-0.55
343.512	-0.55
343.875	-0.52
344.238	-0.49
344.6	-0.57
344.963	-0.57
345.325	-0.58
345.688	-0.65
346.05	-0.69
346.412	-0.68
346.775	-0.7
347.137	-0.74
347.499	-0.76
347.861	-0.75
348.223	-0.75
348.585	-0.74
348.947	-0.76
349.309	-0.83
349.671	-0.8
350.033	-0.77
350.395	-0.79
350.757	-0.79
351.118	-0.77
351.48	-0.75
351.842	-0.73
352.203	-0.71
352.565	-0.75
352.927	-0.75
353.288	-0.76
353.65	-0.75
354.011	-0.78
354.372	-0.74
354.734	-0.66
355.095	-0.64
355.456	-0.6
355.817	-0.61
356.179	-0.62
356.54	-0.58
356.901	-0.6
357.262	-0.59
357.623	-0.6
357.984	-0.48
358.345	-0.44
358.705	-0.45
359.066	-0.42
359.427	-0.46
359.788	-0.44
360.148	-0.39
360.509	-0.35
360.87	-0.33
361.23	-0.37
361.591	-0.32
361.951	-0.31
362.312	-0.29
362.672	-0.23
363.032	-0.26
363.393	-0.26
363.753	-0.31
364.113	-0.38
364.473	-0.44
364.833	-0.41
365.193	-0.43
365.553	-0.49
365.913	-0.51
366.273	-0.58
366.633	-0.51
366.993	-0.64
367.353	-0.68
367.713	-0.7
368.072	-0.75
368.432	-0.73
368.792	-0.74
369.151	-0.78
369.511	-0.81
369.87	-0.92
370.23	-0.82
370.589	-0.8
370.949	-0.82
371.308	-0.89
371.667	-0.94
372.027	-0.94
372.386	-0.98
372.745	-0.92
373.104	-0.87
373.463	-0.86
373.822	-0.86
374.181	-0.82
374.54	-0.77
374.899	-0.74
375.258	-0.72
375.617	-0.73
375.975	-0.69
376.334	-0.66
376.693	-0.57
377.052	-0.49
377.41	-0.45
377.769	-0.4
378.127	-0.37
378.486	-0.43
378.844	-0.37
379.202	-0.41
379.561	-0.49
379.919	-0.51
380.277	-0.46
380.636	-0.44
380.994	-0.46
381.352	-0.42
381.71	-0.49
382.068	-0.45
382.426	-0.43
382.784	-0.46
383.142	-0.47
383.5	-0.47
383.857	-0.39
384.215	-0.37
384.573	-0.44
384.931	-0.41
385.288	-0.44
385.646	-0.51
386.003	-0.6
386.361	-0.66
386.718	-0.71
387.076	-0.7
387.433	-0.7
387.791	-0.73
388.148	-0.75
388.505	-0.71
388.862	-0.69
389.22	-0.74
389.577	-0.74
389.934	-0.72
390.291	-0.73
390.648	-0.71
391.005	-0.73
391.362	-0.83
391.718	-0.83
392.075	-0.92
392.432	-0.92
392.789	-1.06
393.145	-1.07
393.502	-1.03
393.859	-1.06
394.215	-1
394.572	-1
394.928	-1
395.285	-1.01
395.641	-1.01
395.997	-1.07
396.354	-1.03
396.71	-0.95
397.066	-0.97
397.422	-0.91
397.778	-0.98
398.134	-0.91
398.491	-0.94
398.846	-0.99
399.202	-1
399.558	-1.03
399.914	-0.98
400.27	-0.99
400.626	-1
400.981	-0.96
401.337	-0.94
401.693	-0.87
402.048	-0.83
402.404	-0.84
402.759	-0.78
403.115	-0.82
403.47	-0.79
403.826	-0.78
404.181	-0.76
404.536	-0.81
404.892	-0.85
405.247	-0.91
405.602	-0.97
405.957	-0.98
406.312	-1.02
406.667	-1
407.022	-1.03
407.377	-0.96
407.732	-0.9
408.087	-0.95
408.442	-0.92
408.796	-1.04
409.151	-0.99
409.506	-0.93
409.86	-0.93
410.215	-0.99
410.57	-1.11
410.924	-1.04
411.279	-1.06
411.633	-1.13
411.987	-1.08
412.342	-1.06
412.696	-1.04
413.05	-1.03
413.404	-0.97
413.758	-0.83
414.113	-0.79
414.467	-0.74
414.821	-0.79
415.175	-0.71
415.529	-0.72
415.882	-0.73
416.236	-0.75
416.59	-0.78
416.944	-0.66
417.298	-0.64
417.651	-0.6
418.005	-0.53
418.358	-0.51
418.712	-0.42
419.065	-0.43
419.419	-0.3
419.772	-0.39
420.126	-0.28
420.479	-0.2
420.832	-0.3
421.185	-0.22
421.539	-0.27
421.892	-0.24
422.245	-0.26
422.598	-0.31
422.951	-0.22
423.304	-0.27
423.657	-0.19
424.01	-0.25
424.363	-0.24
424.715	-0.21
425.068	-0.24
425.421	-0.2
425.773	-0.29
426.126	-0.16
426.479	-0.16
426.831	-0.18
427.184	-0.28
427.536	-0.32
427.889	-0.3
428.241	-0.32
428.593	-0.36
428.945	-0.4
429.298	-0.41
429.65	-0.33
430.002	-0.41
430.354	-0.28
430.706	-0.28
431.058	-0.28
431.41	-0.32
431.762	-0.41
432.114	-0.35
432.466	-0.32
432.817	-0.35
433.169	-0.27
433.521	-0.26
433.872	-0.24
434.224	-0.25
434.576	-0.22
434.927	-0.31
435.279	-0.35
435.63	-0.29
435.981	-0.22
436.333	-0.19
436.684	-0.15
437.035	-0.16
437.387	-0.11
437.738	-0.12
438.089	-0.13
438.44	-0.2
438.791	-0.27
439.142	-0.31
439.493	-0.28
439.844	-0.21
440.195	-0.16
440.545	-0.13
440.896	-0.03
441.247	-0.09
441.598	-0.08
441.948	-0.13
442.299	-0.19
442.649	-0.17
443	-0.18
443.35	-0.22
443.701	-0.22
444.051	-0.19
444.401	-0.29
444.752	-0.33
445.102	-0.4
445.452	-0.44
445.802	-0.4
446.152	-0.39
446.502	-0.41
446.852	-0.55
447.202	-0.53
447.552	-0.54
447.902	-0.61
448.252	-0.69
448.602	-0.16
448.952	-0.14
449.301	-0.22
449.651	-0.37
450.001	-0.37
450.35	-0.34
450.7	-0.29
451.049	-0.3
451.399	-0.21
451.748	-0.2
452.097	-0.12
452.447	-0.2
452.796	-0.09
453.145	0
453.494	-0
453.843	0.05
454.193	0.09
454.542	-0.01
454.891	0.06
455.239	-0.01
455.588	0.2
455.937	0.17
456.286	0.26
456.635	0.26
456.984	0.28
457.332	-0.34
457.681	-0.4
458.03	-0.29
458.378	-0.31
458.727	-0.28
459.075	-0.31
459.423	-0.25
459.772	-0.24
460.12	-0.4
460.468	-0.4
460.817	-0.39
461.165	-0.3
461.513	-0.42
461.861	-0.55
462.209	-0.46
462.557	-0.33
462.905	-0.4
463.253	-0.29
463.601	-0.23
463.949	-0.17
464.297	-0.24
464.644	-0.14
464.992	-0.2
465.34	-0.15
465.687	-0.09
466.035	-0.1
466.383	0.02
466.73	-0.06
467.078	0.02
467.425	-0.02
467.772	0.08
468.12	-0
468.467	0.02
468.814	0.12
469.161	0.17
469.508	0.19
469.856	0.16
470.203	0.19
470.55	0.25
470.897	0.35
471.243	0.21
471.59	0.29
471.937	0.27
472.284	0.15
472.631	0.16
472.977	0.26
473.324	0.27
473.671	0.24
474.017	0.17
474.364	0.1
474.71	0.19
475.057	0.11
475.403	0.14
475.749	0.14
476.096	0.2
476.442	0.21
476.788	0.24
477.134	0.25
477.48	0.21
477.826	0.18
478.172	0.12
478.518	0.17
478.864	0.17
479.21	0.25
479.556	0.16
479.902	0.18
480.248	0.19
480.593	0.12
480.939	0.09
481.285	0.08
481.63	0.07
481.976	0.07
482.321	0.12
482.667	0.23
483.012	0.24
483.357	0.22
483.703	0.28
484.048	0.39
484.393	0.46
484.738	0.49
485.084	0.45
485.429	0.48
485.774	0.54
486.119	0.6
486.464	0.73
486.808	0.83
487.153	0.86
487.498	0.97
487.843	0.97
488.188	1.09
488.532	1.25
488.877	1.44
489.222	1.69
489.566	1.9
489.911	2.18
490.255	2.34
490.6	2.55
490.944	2.71
491.288	2.88
491.633	3.26
491.977	3.55
492.321	3.85
492.665	4.07
493.009	4.39
493.353	4.78
493.697	5.15
494.041	5.54
494.385	5.97
494.729	6.36
495.073	6.75
495.417	7.18
495.76	7.69
496.104	8.16
496.448	8.68
496.791	9.24
497.135	9.76
497.479	10.26
497.822	10.83
498.165	11.48
498.509	12.08
498.852	12.71
499.196	13.32
499.539	13.96
499.882	14.65
500.225	15.25
500.568	15.86
500.911	16.42
501.254	17.13
501.597	17.81
501.94	18.48
502.283	19.13
502.626	19.79
502.969	20.46
503.312	21.2
503.654	21.9
503.997	22.58
504.34	23.24
504.682	23.88
505.025	24.57
505.367	25.19
505.71	25.75
506.052	26.38
506.395	27.03
506.737	27.62
507.079	28.27
507.421	28.92
507.764	29.59
508.106	30.25
508.448	30.83
508.79	31.41
509.132	32.1
509.474	32.67
509.816	33.17
510.158	33.6
510.499	34.1
510.841	34.62
511.183	35.18
511.525	35.66
511.866	36.2
512.208	36.65
512.549	37.11
512.891	37.62
513.232	38.28
513.574	38.84
513.915	39.29
514.256	39.94
514.598	40.47
514.939	40.91
515.28	41.29
515.621	41.62
515.962	41.95
516.303	42.43
516.644	42.88
516.985	43.34
517.326	43.73
517.667	44.03
518.008	44.35
518.349	44.83
518.69	45.39
519.03	45.8
519.371	46.25
519.712	46.52
520.052	46.73
520.393	46.94
520.733	47.26
521.074	47.66
521.414	48.03
521.754	48.17
522.095	48.34
522.435	48.73
522.775	48.9
523.115	49.12
523.455	49.27
523.795	49.68
524.135	49.95
524.475	50.28
524.815	50.48
525.155	50.75
525.495	50.86
525.835	51.1
526.175	51.3
526.514	51.62
526.854	51.73
527.194	51.75
527.533	51.95
527.873	52.06
528.212	52.34
528.552	52.61
528.891	52.92
529.23	53.16
529.57	53.39
529.909	53.54
530.248	53.66
530.587	53.97
530.927	54.03
531.266	54.19
531.605	54.39
531.944	54.46
532.283	54.59
532.621	54.67
532.96	54.94
533.299	55.02
533.638	55.12
533.977	55.38
534.315	55.54
534.654	55.6
534.992	55.84
535.331	55.91
535.67	56.17
536.008	56.29
536.346	56.39
536.685	56.25
537.023	56.33
537.361	56.47
537.7	56.43
538.038	56.32
538.376	56.38
538.714	56.69
539.052	56.65
539.39	56.62
539.728	56.58
540.066	56.5
540.404	56.71
540.741	56.75
541.079	56.88
541.417	56.83
541.755	56.93
542.092	56.91
542.43	56.81
542.767	56.75
543.105	56.66
543.442	56.65
543.78	56.7
544.117	56.78
544.454	56.86
544.792	56.88
545.129	57.07
545.466	57.19
545.803	57.05
546.14	57.09
546.477	57.1
546.814	57.2
547.151	56.91
547.488	56.97
547.825	57.16
548.162	57.22
548.499	57.3
548.835	57.37
549.172	57.48
549.509	57.54
549.845	57.61
550.182	57.58
550.518	57.67
550.855	57.84
551.191	57.91
551.528	57.98
551.864	58.02
552.2	57.93
552.537	57.78
552.873	57.75
553.209	57.93
553.545	58.02
553.881	58
554.217	58.05
554.553	58.22
554.889	58.28
555.225	57.98
555.561	58.15
555.896	58.3
556.232	58.36
556.568	58.53
556.903	58.49
557.239	58.44
557.575	58.55
557.91	58.61
558.245	58.56
558.581	58.69
558.916	58.8
559.252	58.69
559.587	58.8
559.922	59.06
560.257	59.14
560.592	59.39
560.928	59.49
561.263	59.45
561.598	59.37
561.933	59.37
562.267	59.56
562.602	59.79
562.937	60.04
563.272	60.23
563.607	60.47
563.941	60.76
564.276	60.74
564.611	60.86
564.945	60.97
565.28	61.3
565.614	61.23
565.949	61.04
566.283	61.16
566.617	61.32
566.951	61.47
567.286	61.55
567.62	61.6
567.954	61.67
568.288	61.72
568.622	61.62
568.956	61.47
569.29	61.64
569.624	61.6
569.958	61.77
570.292	61.79
570.626	61.87
570.959	61.86
571.293	61.82
571.627	61.86
571.96	61.85
572.294	61.78
572.627	61.75
572.961	61.68
573.294	61.66
573.627	61.58
573.961	61.69
574.294	61.89
574.627	62.05
574.961	62.14
575.294	62.13
575.627	62.17
575.96	62.24
576.293	62.1
576.626	62.14
576.959	62.26
577.292	62.35
577.624	62.26
577.957	62.42
578.29	62.45
578.623	62.56
578.955	62.58
579.288	62.56
579.62	62.49
579.953	62.51
580.285	62.57
580.618	62.67
580.95	62.7
581.282	62.75
581.615	62.88
581.947	62.88
582.279	62.98
582.611	62.85
582.943	62.69
583.275	62.62
583.607	62.72
583.939	62.68
584.271	62.58
584.603	62.74
584.935	62.75
585.267	62.7
585.598	62.75
585.93	62.91
586.262	62.84
586.593	62.82
586.925	62.87
587.256	62.81
587.588	62.76
587.919	62.89
588.25	62.82
588.582	62.89
588.913	62.84
589.244	62.94
589.575	63.16
589.907	63.05
590.238	63.02
590.569	63
590.9	63.11
591.231	63.21
591.562	63.14
591.892	63.05
592.223	63.03
592.554	63.22
592.885	63.29
593.215	63.21
593.546	63.15
593.877	63.11
594.207	63
594.538	63.03
594.868	63.04
595.198	62.86
595.529	62.77
595.859	62.69
596.189	62.69
596.52	62.9
596.85	62.96
597.18	62.97
597.51	62.92
597.84	62.72
598.17	62.66
598.5	62.76
598.83	62.79
599.16	62.86
599.489	62.95
599.819	63.01
600.149	62.85
600.479	62.94
600.808	62.86
601.138	62.77
601.467	62.78
601.797	62.99
602.126	63.11
602.456	63.23
602.785	63.37
603.114	63.33
603.443	63.35
603.773	63.39
604.102	63.48
604.431	63.43
604.76	63.26
605.089	63.25
605.418	63.29
605.747	63.45
606.076	63.43
606.405	63.36
606.733	63.33
607.062	63.28
607.391	63.12
607.72	62.81
608.048	62.68
608.377	62.82
608.705	62.69
609.034	62.64
609.362	62.67
609.69	62.57
610.019	62.47
610.347	62.44
610.675	62.4
611.004	62.25
611.332	62.23
611.66	62.25
611.988	62.17
612.316	62.2
612.644	62.16
612.972	62.31
613.3	62.32
613.627	62.25
613.955	62.1
614.283	61.95
614.611	61.87
614.938	61.88
615.266	61.84
615.593	61.93
615.921	61.9
616.248	62.04
616.576	62.06
616.903	62.16
617.23	62.28
617.558	62.3
617.885	62.51
618.212	62.48
618.539	62.51
618.866	62.06
619.193	61.98
619.52	61.97
619.847	62.19
620.174	62.39
620.501	62.31
620.828	62.39
621.155	62.19
621.481	61.83
621.808	61.84
622.135	62.03
622.461	62.16
622.788	62.44
623.114	62.29
623.441	61.82
623.767	61.91
624.093	62.2
624.42	62.02
624.746	62.09
625.072	62.01
625.398	61.96
625.725	61.91
626.051	61.85
626.377	61.79
626.703	61.65
627.029	62.24
627.354	61.99
627.68	61.88
628.006	61.78
628.332	61.52
628.658	61.78
628.983	62.02
629.309	62.07
629.634	62.48
629.96	62.1
630.285	61.85
630.611	62.04
630.936	62.07
631.262	62.49
631.587	63.17
631.912	63.14
632.237	62.97
632.562	63.82
632.887	63.51
633.213	63.26
633.538	63.46
633.863	63.53
634.187	63.31
634.512	63.24
634.837	62.94
635.162	62.1
635.487	61.92
635.811	62.01
636.136	62
636.461	61.71
636.785	61.47
637.11	61.61
637.434	61.29
637.758	61.16
638.083	61.6
638.407	61.36
638.731	60.5
639.056	60.58
639.38	60.37
639.704	60.73
640.028	60.95
640.352	61.33
640.676	60.65
641	60.54
641.324	60.9
641.648	60.88
641.972	60.45
642.295	60.14
642.619	60.08
642.943	60.26
643.266	60.94
643.59	61.25
643.913	60.91
644.237	60.77
644.56	60.97
644.884	61.11
645.207	60.22
645.53	60.65
645.854	60.49
646.177	60.52
646.5	60.5
646.823	60.93
647.146	60.9
647.469	60.88
647.792	60.14
648.115	59.86
648.438	59.72
648.761	62.08
649.084	63.02
649.406	63.6
649.729	62.67
650.052	62.62
650.374	62.63
650.697	62.64
651.019	62.65
651.342	62.51
651.664	62.74
651.987	62.82
652.309	62.74
652.631	62.8
652.953	62.8
653.276	62.87
653.598	62.83
653.92	62.96
654.242	63.04
654.564	63.02
654.886	63.15
655.208	63.01
655.53	63.07
655.851	63.21
656.173	63.17
656.495	63.22
656.816	62.28
657.138	61.75
657.46	60.63
657.781	61.03
658.103	61.39
658.424	61.22
658.746	60.82
659.067	60.65
659.388	60.78
659.709	59.78
660.031	59.29
660.352	59.33
660.673	58.75
660.994	58.79
661.315	59
661.636	58.99
661.957	58.25
662.278	58.34
662.599	58.02
662.919	57.57
663.24	57.84
663.561	57.3
663.881	56.81
664.202	56.82
664.523	55.97
664.843	55.9
665.164	56.47
665.484	56.77
665.804	56.87
666.125	56.36
666.445	57.26
666.765	57.73
667.085	57.66
667.405	57.64
667.726	58.14
668.046	58.67
668.366	58.19
668.686	58.8
669.005	58.62
669.325	58.72
669.645	57.98
669.965	58.25
670.285	58.1
670.604	58.8
670.924	58.91
671.243	59.37
671.563	59.84
671.882	60
672.202	59.6
672.521	60.15
672.841	59.91
673.16	59.29
673.479	59.2
673.798	59.11
674.117	59.72
674.437	59.62
674.756	59.84
675.075	59.75
675.394	58.96
675.713	58.96
676.031	59.32
676.35	60.23
676.669	59.97
676.988	60.31
677.306	60.17
677.625	61.27
677.944	61.43
678.262	61.41
678.581	61.36
678.899	61.67
679.218	61.23
679.536	60.98
679.854	61.09
680.172	61.53
680.491	60.75
680.809	60.93
681.127	60.58
681.445	60.59
681.763	60.96
682.081	59.96
682.399	58.77
682.717	58.33
683.035	58.48
683.352	59.19
683.67	59.04
683.988	59.02
684.306	59.54
684.623	60.09
684.941	59.99
685.258	60.24
685.576	59.88
685.893	59.79
686.211	60.18
686.528	60.04
686.845	60.4
687.162	59.93
687.48	59.81
687.797	59.97
688.114	59.82
688.431	60.47
688.748	59.96
689.065	60
689.382	60.32
689.699	60.28
690.015	60.77
690.332	61.66
690.649	62.16
690.966	62.46
691.282	62.51
691.599	62.75
691.915	62.51
692.232	61.76
692.548	61.29
692.865	61.17
693.181	60.61
693.497	60.37
693.813	60.11
694.13	60.04
694.446	59.14
694.762	58.58
695.078	58.39
695.394	59.01
695.71	58.38
696.026	57.95
696.342	57.9
696.658	59.03
696.973	61.35
697.289	60.76
697.605	60.47
697.92	61.48
698.236	62.31
698.551	62.27
698.867	62.27
699.182	63
699.498	63.38
699.813	63.69
700.128	64.31
700.444	64.44
700.759	64.41
701.074	64.42
701.389	65.85
701.704	64.91
702.019	63.82
702.334	65.17
702.649	64.75
702.964	65.46
703.279	65.25
703.594	66.1
703.908	66.27
704.223	65.65
704.538	64.21
704.852	61.96
705.167	61.47
705.481	61.51
705.796	60.97
706.11	59.98
706.425	59.94
706.739	59.7
707.053	58.65
707.368	59.33
707.682	59.05
707.996	58.5
708.31	58.89
708.624	60.01
708.938	60.74
709.252	60.16
709.566	60.47
709.88	60.42
710.193	59.2
710.507	60.05
710.821	60.13
711.135	59.18
711.448	58.04
711.762	58.63
712.075	57.81
712.389	60.11
712.702	60.4
713.015	61.34
713.329	61.15
713.642	60.86
713.955	61.35
714.269	60.93
714.582	61.96
714.895	62.45
715.208	61.28
715.521	61.34
715.834	62.16
716.147	62.28
716.459	60.57
716.772	59.6
717.085	58.68
717.398	59.37
717.71	59.64
718.023	60.26
718.336	59.33
718.648	58.56
718.961	58.48
719.273	58.99
719.585	58.81
719.898	60.15
720.21	59.13
720.522	59.11
720.834	59.26
721.147	59.45
721.459	58.93
721.771	59.93
722.083	60.83
722.395	59.13
722.707	59.41
723.019	57.81
723.33	57.25
723.642	56.21
723.954	55.15
724.265	56.29
724.577	55.88
724.889	56.03
725.2	55.85
725.512	56
725.823	55.78
726.135	55.96
726.446	56.22
726.757	57.26
727.068	58.19
727.38	57.89
727.691	58.26
728.002	58.42
728.313	57.93
728.624	57.93
728.935	58.29
729.246	58.85
729.557	58.98
729.867	59.21
730.178	59.28
730.489	59.24
730.8	61.24
731.11	62.66
731.421	62.97
731.731	63.28
732.042	61.92
732.352	61.67
732.663	62.14
732.973	61.98
733.283	61.75
733.594	61.65
733.904	62
734.214	62.87
734.524	62.72
734.834	63.18
735.144	62.83
735.454	62.78
735.764	62.73
736.074	62.41
736.384	62.38
736.694	62.33
737.003	62.53
737.313	62.42
737.623	60.84
737.932	61.74
738.242	62.42
738.551	61.05
738.861	59.5
739.17	58.73
739.479	59.67
739.789	61.42
740.098	62.35
740.407	61.33
740.716	63.53
741.025	65.7
741.334	66.91
741.643	66.36
741.952	65.59
742.261	64.97
742.57	64.21
742.879	64.37
743.188	65.47
743.497	65.47
743.805	67.86
744.114	68.96
744.422	67.64
744.731	66.59
745.04	64.8
745.348	69.51
745.656	68.02
745.965	67.51
746.273	67.21
746.581	67.68
746.889	67.22
747.198	64.68
747.506	63.85
747.814	63.94
748.122	63.61
748.43	60.81
748.738	59.61
749.046	57.4
749.353	59.92
749.661	60.72
749.969	61.72
750.277	59.37
750.584	59.53
750.892	58.7
751.199	59.28
751.507	60.28
751.814	60.6
752.122	61.15
752.429	62.83
752.736	64.21
753.044	60.21
753.351	61.08
753.658	60.96
753.965	61.76
754.272	62.98
754.579	63.38
754.886	63
755.193	63.92
755.5	63.18
755.807	64.23
756.114	64.13
756.42	61.2
756.727	62.23
757.034	61.12
757.34	61.1
757.647	59.35
757.953	59.87
758.26	60.93
758.566	60.59
758.872	59.5
759.179	59.21
759.485	58.01
759.791	57.76
760.097	55.71
760.403	54.59
760.709	55.92
761.015	54.48
761.321	53.11
761.627	53.06
761.933	50.97
762.239	50.44
762.545	51.27
762.851	49.98
763.156	49.62
763.462	47.88
763.767	47.01
764.073	49.08
764.378	48.07
764.684	48.16
764.989	48.28
765.295	50.46
765.6	50.48
765.905	49.67
766.21	49.2
766.515	49.33
766.821	46.86
767.126	45.98
767.431	46.97
767.736	50.7
768.041	50.96
768.345	48.84
768.65	53.24
768.955	51.97
769.26	47.93
769.564	46.29
769.869	43.3
770.174	41.9
770.478	43.3
770.783	41.17
771.087	45.56
771.391	50.04
771.696	52.15
772	54.56
772.304	58.71
772.608	61.07
772.913	68.1
773.217	69.42
773.521	69.31
773.825	68.18
774.129	65.49
774.433	64.59
774.736	60.05
775.04	58.3
775.344	54.36
775.648	52.61
775.951	53.89
776.255	49.86
776.559	51.51
776.862	55.36
777.166	64.59
777.469	69.81
777.772	71.28
778.076	77.24
778.379	81.36
778.682	69.66
778.985	65.85
779.289	59.63
779.592	58.7
779.895	58.98
780.198	59.72
780.501	46.53
780.804	49.01
781.106	54.29
781.409	49.95
781.712	50.33
782.015	50.15
782.317	57.8
782.62	66.66
782.923	69.72
783.225	69.4
783.527	68.36
783.83	66.15
784.132	72.3
784.435	73.65
784.737	56.98
785.039	51.95
785.341	51.12
785.643	37.6
785.945	35.7
786.248	47.14
786.55	55.65
786.851	56.86
787.153	51.15
787.455	39.35
787.757	43.62
788.059	45.78
788.36	40.38
788.662	25.44
788.964	26.05
789.265	20.51
789.567	24.48
789.868	24.39
790.17	8.93
790.471	11.64
790.772	-1.66
791.074	-11.03
791.375	-5.22
791.676	-1.68
791.977	-0.65
792.278	-3.77
792.579	1.49
792.88	-6.06
793.181	14.16
793.482	3.07
793.783	3.09
794.083	-12.87
794.384	-4.12
794.685	10
794.986	-0.43
795.286	-18.41
795.587	6.71
795.887	19.44
796.188	36.58
796.488	39.64
796.788	34.99
797.089	37.02
797.389	28.03
797.689	36.48
797.989	17.39
798.289	21.6
798.589	26.63
798.889	19.57
799.189	18.3
799.489	24.33
799.789	25.32
800.089	14.52
800.389	5.4
800.688	-7.64
800.988	6.85
801.288	4.13
801.587	14.85
801.887	-8.78
802.186	-45.64
802.486	-22.84
802.785	-34.69
803.085	-62.22
803.384	-74.99
803.683	-120.68
803.982	-133.42
804.281	-174.25
804.58	-172.02
804.879	-338.85
805.178	-437.76
805.477	-189.21
805.776	-198.2
806.075	-299.66
806.374	-207.69
806.673	-208.13
806.971	-348.19
807.27	-2442.22
807.569	-3385.06
807.867	-2084.87
808.166	966.42
808.464	846.13
808.763	354.14
809.061	261.09
809.359	259.34
809.658	177.31
809.956	83.46
810.254	60.54
810.552	91.25
810.85	95.57
811.148	88.49
811.446	81.12
811.744	65.46
812.042	79.35
812.34	71.68
812.638	81.43
812.935	60.41
813.233	83.15
813.531	113.08
813.828	94.01
814.126	83.91
814.423	99.42
814.721	86.41
815.018	112.25
815.316	151.92
815.613	184.07
815.91	209.98
816.207	138.28
816.504	125.98
816.802	217.35
817.099	152.04
817.396	324.19
817.693	479.06
817.99	560.99
818.286	411.5
818.583	-615.6
818.88	580
819.177	351.11
819.473	411.03
819.77	536.81
820.067	1266.17
820.363	3573.97
820.66	-1163.39
820.956	445.05
821.252	-3284.62
821.549	1156.93
821.845	1918.18
822.141	-1629.34
822.437	-315.78
822.734	-447.91
823.03	843.2
823.326	333.77
823.622	669.98
823.918	5812.28
824.213	1053.74
824.509	1163.97
824.805	688.79
825.101	386.91
825.397	286.51
825.692	461.39
825.988	170.5
826.283	272.19
826.579	599.19
826.874	-3216.5
827.17	-7838.46
827.465	790.82
827.76	460.14
828.056	478.06
828.351	1812.45
828.646	494.1
828.941	589.06
829.236	517.6
829.531	313.45
829.826	241.31
830.121	263.59
830.416	302.62
830.711	205.47
831.006	225.76
831.3	226.32
831.595	181.46
831.89	168.04
832.184	129.75
832.479	114.75
832.773	122.54
833.068	128.78
833.362	143.75
833.656	123.96
833.951	108.21
834.245	137.11
834.539	154.68
834.833	177.4
835.127	156.53
835.421	137.05
835.715	120.07
836.009	125.37
836.303	116.76
836.597	109.2
836.891	102
837.185	117.7
837.478	106.21
837.772	104.11
838.066	120.4
838.359	110.14
838.653	111.8
838.946	107.86
839.24	108.46
839.533	87.46
839.826	143.39
840.119	165.79
840.413	137.98
840.706	192.11
840.999	147.8
841.292	163.6
841.585	113.97
841.878	102.31
842.171	95.3
842.464	163.51
842.757	163.41
843.049	163.41
843.342	192.02
843.635	214.71
843.927	264.63
844.22	287.06
844.513	345.61
844.805	644.71
845.098	858.59
845.39	971.53
845.682	925.4
845.975	1582.26
846.267	591.3
846.559	473.15
846.851	425.43
847.143	324.4
847.435	388.12
847.727	412.49
848.019	523.99
848.311	1233.79
848.603	2548.07
848.895	-1825.38
849.186	-485.21
849.478	-25813.04
849.77	1809.42
850.061	2815.88
850.353	-5392.44
850.645	-903.01
850.936	-822.53
851.227	-85728.57
851.519	-1842.12
851.81	1367.89
852.101	972.18
852.393	3097.24
852.684	-3868.21
852.975	-1114.95
853.266	-470.5
853.557	-403.33
853.848	-193.77
854.139	-116
854.43	-130.44
854.72	-251.85
855.011	-358.03
855.302	-392.69
855.593	-409.29
855.883	-453.18
856.174	-393.51
856.464	-1556.83
856.755	1764.86
857.045	874.54
857.336	749.31
857.626	-2502.3
857.916	1587.6
858.206	-8421.74
858.497	-101.24
858.787	-152.3
859.077	-172.53
859.367	-57.08
859.657	-27.54
859.947	-412.57
860.237	783.21
860.527	93.98
860.816	82.9
861.106	45.84
861.396	54.85
861.685	70.83
861.975	110.13
862.265	70.66
862.554	135.44
862.844	-682.51
863.133	-474.9
863.422	-434.41
863.712	-193.81
864.001	-65.25
864.29	-57.35
864.579	-75.51
864.868	-134.55
865.157	-134.57
865.446	-160.1
865.735	-389.46
866.024	-327.72
866.313	-142.75
866.602	-288.57
866.891	-321.12
867.179	-189.57
867.468	-186.31
