Data from T2_Reflection__30__19-09-18-245.txt Node

Date: Fri Jun 04 19:09:18 CEST 2021
User: mabdelazizm
Spectrometer: FLMS18565
Trigger mode: 0
Integration Time (sec): 2.000000E0
Scans to average: 1
Electric dark correction enabled: true
Nonlinearity correction enabled: false
Boxcar width: 12
XAxis mode: Wavelengths
Number of Pixels in Spectrum: 2048
>>>>>Begin Spectral Data<<<<<
179.071	28.66
179.452	31.34
179.833	-54.62
180.214	-53.85
180.595	-81.63
180.977	-149.43
181.358	-202.97
181.739	-179.33
182.12	-89.82
182.501	-131.24
182.882	-194.05
183.262	-797.14
183.643	-161.41
184.024	-125.74
184.405	-63.39
184.786	-56.18
185.166	-74.72
185.547	-35.79
185.927	-16.94
186.308	-21.65
186.689	-13.56
187.069	-14.34
187.449	-18.54
187.83	-25.25
188.21	-32.05
188.59	-23.57
188.971	-25.51
189.351	-14.03
189.731	-13.56
190.111	-10.47
190.491	-7.21
190.871	-7.46
191.251	-6.33
191.631	-5.83
192.011	-3.31
192.391	-0.83
192.771	3.44
193.151	2.58
193.531	4.49
193.91	6.63
194.29	7.5
194.67	8.07
195.049	3.63
195.429	3.28
195.808	2.7
196.188	-0
196.567	1.67
196.946	7.4
197.326	9.34
197.705	10.47
198.084	4.09
198.464	2.92
198.843	3.19
199.222	0.76
199.601	-0.74
199.98	-2.81
200.359	-0.41
200.738	0.62
201.117	-2.46
201.496	-5.96
201.875	-3.88
202.254	-4.74
202.632	-4.77
203.011	-2.76
203.39	-5.05
203.768	-2.08
204.147	-0.42
204.525	-0.75
204.904	-1.73
205.282	-0.52
205.661	-1.93
206.039	-1.04
206.418	-5.37
206.796	-2.58
207.174	-3.18
207.552	-0.64
207.931	-0.6
208.309	-1.77
208.687	0.11
209.065	3.14
209.443	3.59
209.821	1
210.199	-1.23
210.577	-0.06
210.954	3.67
211.332	1.5
211.71	0.53
212.088	0.72
212.465	-1.04
212.843	-0.77
213.221	-0.7
213.598	-0.93
213.976	-1.58
214.353	-3.18
214.731	-5.63
215.108	-4.88
215.485	-4.62
215.863	-4.31
216.24	-5.69
216.617	-5.19
216.994	-5.9
217.371	-4.79
217.749	-4.5
218.126	-4.62
218.503	-5.39
218.88	-4.75
219.256	-4.65
219.633	-3.29
220.01	-3.24
220.387	-4.1
220.764	-3.5
221.14	-2.95
221.517	-2.65
221.894	-2.61
222.27	-2.33
222.647	-3.25
223.023	-3.07
223.4	-2.85
223.776	-1.46
224.153	-1.65
224.529	-1.24
224.905	-1.26
225.282	-1.08
225.658	-1.4
226.034	-1.46
226.41	-0.95
226.786	-1.41
227.162	-1.29
227.538	-1
227.914	-0.96
228.29	-1.09
228.666	-0.79
229.042	-1.02
229.418	-0.9
229.793	-0.7
230.169	-0.59
230.545	-0.69
230.92	-0.59
231.296	-0.59
231.672	-0.6
232.047	-0.44
232.422	-0.35
232.798	0.02
233.173	-0.02
233.549	0.29
233.924	0.35
234.299	0.4
234.674	0.41
235.05	0.42
235.425	0.42
235.8	0.5
236.175	0.69
236.55	0.78
236.925	0.8
237.3	0.81
237.675	0.93
238.049	0.95
238.424	0.99
238.799	1.12
239.174	1.16
239.548	1.15
239.923	1.27
240.297	1.16
240.672	1.17
241.046	1.25
241.421	1.22
241.795	1.21
242.17	1.11
242.544	1.18
242.918	1.05
243.293	1.05
243.667	1.06
244.041	1.17
244.415	1.19
244.789	1.27
245.163	1.25
245.537	1.24
245.911	1.25
246.285	1.24
246.659	1.27
247.033	1.25
247.406	1.25
247.78	1.29
248.154	1.19
248.528	1.23
248.901	1.22
249.275	1.2
249.648	1.33
250.022	1.28
250.395	1.25
250.769	1.24
251.142	1.28
251.515	1.27
251.888	1.21
252.262	1.24
252.635	1.24
253.008	1.21
253.381	1.11
253.754	1.1
254.127	1.07
254.5	1.04
254.873	1
255.246	0.97
255.619	1
255.992	0.97
256.364	0.95
256.737	0.93
257.11	0.92
257.483	0.97
257.855	0.94
258.228	0.99
258.6	0.94
258.973	0.89
259.345	0.99
259.718	0.99
260.09	0.98
260.462	0.93
260.834	0.93
261.207	0.98
261.579	1.01
261.951	1.02
262.323	1.01
262.695	1.06
263.067	1.09
263.439	1.11
263.811	1.17
264.183	1.19
264.555	1.22
264.927	1.18
265.298	1.21
265.67	1.2
266.042	1.23
266.413	1.22
266.785	1.16
267.156	1.11
267.528	1.1
267.899	1.12
268.271	1.13
268.642	1.01
269.013	1.01
269.385	1.02
269.756	1.03
270.127	0.99
270.498	0.94
270.87	0.93
271.241	0.91
271.612	0.91
271.983	0.9
272.354	0.85
272.724	0.84
273.095	0.78
273.466	0.78
273.837	0.77
274.208	0.77
274.578	0.73
274.949	0.74
275.32	0.75
275.69	0.7
276.061	0.77
276.431	0.8
276.802	0.73
277.172	0.67
277.542	0.68
277.913	0.75
278.283	0.74
278.653	0.78
279.023	0.73
279.394	0.79
279.764	0.8
280.134	0.82
280.504	0.83
280.874	0.83
281.244	0.81
281.614	0.81
281.983	0.77
282.353	0.8
282.723	0.85
283.093	0.82
283.462	0.8
283.832	0.83
284.202	0.83
284.571	0.77
284.941	0.8
285.31	0.83
285.68	0.84
286.049	0.81
286.418	0.87
286.788	0.89
287.157	0.89
287.526	0.9
287.895	0.86
288.264	0.92
288.633	0.9
289.002	0.83
289.371	0.85
289.74	0.84
290.109	0.82
290.478	0.75
290.847	0.78
291.216	0.77
291.585	0.73
291.953	0.63
292.322	0.63
292.691	0.63
293.059	0.57
293.428	0.55
293.796	0.61
294.165	0.6
294.533	0.53
294.901	0.53
295.27	0.6
295.638	0.57
296.006	0.51
296.374	0.49
296.743	0.51
297.111	0.49
297.479	0.45
297.847	0.44
298.215	0.46
298.583	0.38
298.95	0.37
299.318	0.39
299.686	0.39
300.054	0.39
300.422	0.44
300.789	0.42
301.157	0.43
301.525	0.43
301.892	0.46
302.26	0.45
302.627	0.48
302.994	0.45
303.362	0.45
303.729	0.51
304.097	0.46
304.464	0.4
304.831	0.43
305.198	0.4
305.565	0.42
305.932	0.36
306.299	0.33
306.666	0.29
307.033	0.27
307.4	0.33
307.767	0.31
308.134	0.29
308.501	0.3
308.867	0.37
309.234	0.36
309.601	0.34
309.967	0.33
310.334	0.38
310.701	0.37
311.067	0.37
311.433	0.42
311.8	0.32
312.166	0.32
312.533	0.26
312.899	0.21
313.265	0.23
313.631	0.29
313.997	0.26
314.363	0.28
314.729	0.26
315.096	0.23
315.461	0.25
315.827	0.28
316.193	0.31
316.559	0.3
316.925	0.34
317.291	0.37
317.656	0.36
318.022	0.29
318.388	0.35
318.753	0.32
319.119	0.35
319.484	0.38
319.85	0.33
320.215	0.3
320.581	0.29
320.946	0.34
321.311	0.33
321.676	0.37
322.042	0.35
322.407	0.35
322.772	0.36
323.137	0.36
323.502	0.36
323.867	0.38
324.232	0.36
324.597	0.38
324.962	0.39
325.327	0.37
325.691	0.38
326.056	0.36
326.421	0.35
326.785	0.33
327.15	0.35
327.514	0.28
327.879	0.26
328.243	0.3
328.608	0.27
328.972	0.33
329.337	0.29
329.701	0.27
330.065	0.31
330.429	0.35
330.794	0.36
331.158	0.39
331.522	0.4
331.886	0.36
332.25	0.36
332.614	0.38
332.978	0.36
333.342	0.41
333.705	0.39
334.069	0.37
334.433	0.37
334.797	0.34
335.16	0.33
335.524	0.33
335.887	0.35
336.251	0.35
336.614	0.34
336.978	0.38
337.341	0.31
337.705	0.27
338.068	0.25
338.431	0.29
338.794	0.27
339.158	0.24
339.521	0.22
339.884	0.17
340.247	0.16
340.61	0.13
340.973	0.16
341.336	0.15
341.699	0.12
342.062	0.11
342.424	0.07
342.787	0.07
343.15	0.07
343.512	0.08
343.875	0.05
344.238	0.08
344.6	0.02
344.963	0.01
345.325	0.05
345.688	0.04
346.05	0.04
346.412	0.09
346.775	0.1
347.137	0.11
347.499	0.1
347.861	0.15
348.223	0.14
348.585	0.17
348.947	0.14
349.309	0.09
349.671	0.12
350.033	0.07
350.395	0.06
350.757	0.02
351.118	-0.05
351.48	-0.05
351.842	-0.1
352.203	-0.11
352.565	-0.12
352.927	-0.09
353.288	-0.11
353.65	-0.08
354.011	-0.09
354.372	-0.07
354.734	-0.09
355.095	-0.13
355.456	-0.15
355.817	-0.16
356.179	-0.21
356.54	-0.22
356.901	-0.25
357.262	-0.21
357.623	-0.27
357.984	-0.17
358.345	-0.11
358.705	-0.17
359.066	-0.16
359.427	-0.13
359.788	-0.11
360.148	-0.06
360.509	0
360.87	0.11
361.23	0.08
361.591	0.09
361.951	0.12
362.312	0.15
362.672	0.15
363.032	0.16
363.393	0.15
363.753	0.15
364.113	0.14
364.473	0.15
364.833	0.18
365.193	0.16
365.553	0.22
365.913	0.23
366.273	0.17
366.633	0.21
366.993	0.14
367.353	0.02
367.713	0.04
368.072	0.03
368.432	-0.01
368.792	-0.05
369.151	-0.05
369.511	-0.08
369.87	-0.17
370.23	-0.09
370.589	-0.07
370.949	-0.08
371.308	-0.16
371.667	-0.19
372.027	-0.19
372.386	-0.23
372.745	-0.17
373.104	-0.16
373.463	-0.2
373.822	-0.26
374.181	-0.25
374.54	-0.28
374.899	-0.26
375.258	-0.25
375.617	-0.27
375.975	-0.23
376.334	-0.19
376.693	-0.12
377.052	-0.08
377.41	-0.04
377.769	0.01
378.127	0.02
378.486	-0.02
378.844	0.01
379.202	0
379.561	-0.02
379.919	-0.05
380.277	-0
380.636	0.03
380.994	0
381.352	-0.04
381.71	-0.12
382.068	-0.07
382.426	-0
382.784	0.05
383.142	0.05
383.5	0.04
383.857	0.02
384.215	0.04
384.573	-0.02
384.931	-0.06
385.288	-0.06
385.646	-0.14
386.003	-0.22
386.361	-0.24
386.718	-0.23
387.076	-0.24
387.433	-0.21
387.791	-0.19
388.148	-0.19
388.505	-0.24
388.862	-0.23
389.22	-0.21
389.577	-0.19
389.934	-0.16
390.291	-0.08
390.648	-0.02
391.005	-0.04
391.362	-0.19
391.718	-0.21
392.075	-0.22
392.432	-0.23
392.789	-0.25
393.145	-0.27
393.502	-0.19
393.859	-0.16
394.215	-0.08
394.572	-0.07
394.928	-0.04
395.285	-0.07
395.641	-0.11
395.997	-0.1
396.354	-0.09
396.71	-0.05
397.066	-0.08
397.422	0
397.778	0.03
398.134	0.03
398.491	-0.08
398.846	-0.11
399.202	-0.11
399.558	-0.19
399.914	-0.15
400.27	-0.04
400.626	-0.06
400.981	-0.03
401.337	0.03
401.693	0.02
402.048	-0.06
402.404	-0.12
402.759	-0.07
403.115	-0.13
403.47	-0.14
403.826	-0.09
404.181	-0.1
404.536	-0.06
404.892	-0.08
405.247	-0.15
405.602	-0.21
405.957	-0.2
406.312	-0.23
406.667	-0.26
407.022	-0.27
407.377	-0.18
407.732	-0.2
408.087	-0.27
408.442	-0.22
408.796	-0.29
409.151	-0.27
409.506	-0.19
409.86	-0.21
410.215	-0.28
410.57	-0.26
410.924	-0.11
411.279	-0.09
411.633	-0.2
411.987	-0.19
412.342	-0.13
412.696	-0.18
413.05	-0.14
413.404	-0.13
413.758	-0.09
414.113	-0.05
414.467	-0
414.821	-0.05
415.175	-0.03
415.529	-0.08
415.882	-0.09
416.236	-0.11
416.59	-0.06
416.944	-0.01
417.298	0.05
417.651	0.07
418.005	0.08
418.358	0.03
418.712	0.08
419.065	0.08
419.419	0.09
419.772	0.02
420.126	0.1
420.479	0.18
420.832	0.18
421.185	0.25
421.539	0.29
421.892	0.34
422.245	0.33
422.598	0.43
422.951	0.45
423.304	0.39
423.657	0.43
424.01	0.46
424.363	0.52
424.715	0.54
425.068	0.5
425.421	0.52
425.773	0.55
426.126	0.6
426.479	0.65
426.831	0.63
427.184	0.61
427.536	0.61
427.889	0.67
428.241	0.69
428.593	0.74
428.945	0.72
429.298	0.67
429.65	0.69
430.002	0.63
430.354	0.67
430.706	0.69
431.058	0.71
431.41	0.56
431.762	0.53
432.114	0.57
432.466	0.61
432.817	0.56
433.169	0.57
433.521	0.59
433.872	0.74
434.224	0.69
434.576	0.7
434.927	0.62
435.279	0.57
435.63	0.59
435.981	0.66
436.333	0.68
436.684	0.74
437.035	0.71
437.387	0.7
437.738	0.67
438.089	0.71
438.44	0.72
438.791	0.68
439.142	0.64
439.493	0.56
439.844	0.58
440.195	0.71
440.545	0.79
440.896	0.79
441.247	0.8
441.598	0.84
441.948	0.88
442.299	0.85
442.649	0.83
443	0.82
443.35	0.74
443.701	0.79
444.051	0.74
444.401	0.7
444.752	0.67
445.102	0.65
445.452	0.54
445.802	0.57
446.152	0.64
446.502	0.65
446.852	0.65
447.202	0.63
447.552	0.66
447.902	0.64
448.252	0.59
448.602	0.94
448.952	0.91
449.301	0.92
449.651	0.99
450.001	0.96
450.35	0.92
450.7	0.93
451.049	0.95
451.399	0.98
451.748	1.06
452.097	1.22
452.447	1.18
452.796	1.29
453.145	1.43
453.494	1.46
453.843	1.45
454.193	1.5
454.542	1.5
454.891	1.48
455.239	1.41
455.588	1.52
455.937	1.49
456.286	1.53
456.635	1.57
456.984	1.66
457.332	1.26
457.681	1.26
458.03	1.28
458.378	1.2
458.727	1.16
459.075	1.2
459.423	1.28
459.772	1.31
460.12	1.25
460.468	1.28
460.817	1.29
461.165	1.29
461.513	1.27
461.861	1.17
462.209	1.21
462.557	1.36
462.905	1.37
463.253	1.35
463.601	1.39
463.949	1.44
464.297	1.41
464.644	1.54
464.992	1.54
465.34	1.5
465.687	1.54
466.035	1.49
466.383	1.52
466.73	1.43
467.078	1.38
467.425	1.41
467.772	1.49
468.12	1.45
468.467	1.43
468.814	1.42
469.161	1.4
469.508	1.46
469.856	1.48
470.203	1.45
470.55	1.45
470.897	1.47
471.243	1.31
471.59	1.3
471.937	1.37
472.284	1.29
472.631	1.22
472.977	1.24
473.324	1.27
473.671	1.17
474.017	1.21
474.364	1.11
474.71	1.16
475.057	1.1
475.403	1.13
475.749	1.24
476.096	1.25
476.442	1.18
476.788	1.14
477.134	1.21
477.48	1.24
477.826	1.24
478.172	1.1
478.518	1.19
478.864	1.23
479.21	1.28
479.556	1.23
479.902	1.33
480.248	1.4
480.593	1.32
480.939	1.35
481.285	1.47
481.63	1.44
481.976	1.46
482.321	1.52
482.667	1.6
483.012	1.73
483.357	1.85
483.703	1.95
484.048	2.05
484.393	2.14
484.738	2.2
485.084	2.28
485.429	2.34
485.774	2.35
486.119	2.48
486.464	2.59
486.808	2.7
487.153	2.82
487.498	2.99
487.843	3.11
488.188	3.34
488.532	3.56
488.877	3.73
489.222	4.02
489.566	4.3
489.911	4.67
490.255	5.02
490.6	5.33
490.944	5.7
491.288	6.06
491.633	6.44
491.977	6.76
492.321	7.29
492.665	7.72
493.009	8.13
493.353	8.63
493.697	9.15
494.041	9.7
494.385	10.31
494.729	10.8
495.073	11.38
495.417	12
495.76	12.59
496.104	13.24
496.448	13.92
496.791	14.6
497.135	15.32
497.479	16.05
497.822	16.78
498.165	17.5
498.509	18.16
498.852	18.97
499.196	19.76
499.539	20.52
499.882	21.25
500.225	22.04
500.568	22.78
500.911	23.39
501.254	24.1
501.597	24.9
501.94	25.66
502.283	26.3
502.626	27.12
502.969	27.77
503.312	28.48
503.654	29.21
503.997	29.96
504.34	30.7
504.682	31.36
505.025	32.04
505.367	32.67
505.71	33.21
506.052	33.79
506.395	34.45
506.737	35.14
507.079	35.84
507.421	36.52
507.764	37.11
508.106	37.66
508.448	38.3
508.79	38.79
509.132	39.35
509.474	39.91
509.816	40.42
510.158	40.87
510.499	41.39
510.841	41.97
511.183	42.36
511.525	42.76
511.866	43.26
512.208	43.71
512.549	44.14
512.891	44.51
513.232	45.04
513.574	45.52
513.915	45.92
514.256	46.43
514.598	46.95
514.939	47.33
515.28	47.59
515.621	47.85
515.962	48.02
516.303	48.41
516.644	48.76
516.985	49.07
517.326	49.48
517.667	49.86
518.008	50.17
518.349	50.61
518.69	51
519.03	51.29
519.371	51.68
519.712	51.98
520.052	52.42
520.393	52.53
520.733	52.81
521.074	53.2
521.414	53.62
521.754	53.83
522.095	53.99
522.435	54.32
522.775	54.52
523.115	54.73
523.455	54.89
523.795	55.04
524.135	55.3
524.475	55.61
524.815	55.89
525.155	56.35
525.495	56.5
525.835	56.62
526.175	56.77
526.514	57
526.854	57.1
527.194	57.2
527.533	57.33
527.873	57.44
528.212	57.56
528.552	57.8
528.891	58.05
529.23	58.09
529.57	58.19
529.909	58.3
530.248	58.32
530.587	58.69
530.927	58.83
531.266	58.95
531.605	59.08
531.944	59.14
532.283	59.38
532.621	59.36
532.96	59.59
533.299	59.51
533.638	59.45
533.977	59.55
534.315	59.78
534.654	59.91
534.992	60
535.331	60.06
535.67	60.31
536.008	60.43
536.346	60.53
536.685	60.47
537.023	60.44
537.361	60.61
537.7	60.78
538.038	60.83
538.376	60.84
538.714	61.07
539.052	60.95
539.39	61.06
539.728	60.99
540.066	60.96
540.404	61.17
540.741	61.31
541.079	61.43
541.417	61.41
541.755	61.53
542.092	61.51
542.43	61.48
542.767	61.35
543.105	61.36
543.442	61.35
543.78	61.45
544.117	61.44
544.454	61.45
544.792	61.41
545.129	61.6
545.466	61.68
545.803	61.68
546.14	61.75
546.477	61.75
546.814	61.8
547.151	61.59
547.488	61.58
547.825	61.49
548.162	61.52
548.499	61.53
548.835	61.61
549.172	61.69
549.509	61.66
549.845	61.64
550.182	61.62
550.518	61.66
550.855	61.79
551.191	61.94
551.528	62
551.864	62.13
552.2	62.13
552.537	62
552.873	62.12
553.209	62.21
553.545	62.29
553.881	62.36
554.217	62.36
554.553	62.47
554.889	62.58
555.225	62.66
555.561	62.78
555.896	62.87
556.232	62.93
556.568	63.14
556.903	63.25
557.239	63.29
557.575	63.34
557.91	63.56
558.245	63.53
558.581	63.7
558.916	63.78
559.252	63.89
559.587	63.9
559.922	63.98
560.257	64.02
560.592	63.99
560.928	64.08
561.263	64.18
561.598	64.16
561.933	64.17
562.267	64.12
562.602	64.2
562.937	64.39
563.272	64.38
563.607	64.31
563.941	64.55
564.276	64.66
564.611	64.74
564.945	64.97
565.28	65.08
565.614	64.92
565.949	64.97
566.283	64.98
566.617	65.04
566.951	65.19
567.286	65.37
567.62	65.44
567.954	65.41
568.288	65.42
568.622	65.37
568.956	65.59
569.29	65.69
569.624	65.52
569.958	65.61
570.292	65.71
570.626	65.87
570.959	66
571.293	65.97
571.627	66.17
571.96	66.18
572.294	66.17
572.627	66.19
572.961	66.22
573.294	66.16
573.627	66.34
573.961	66.41
574.294	66.35
574.627	66.61
574.961	66.75
575.294	66.67
575.627	66.79
575.96	66.68
576.293	66.57
576.626	66.61
576.959	66.81
577.292	66.75
577.624	66.75
577.957	66.91
578.29	66.97
578.623	66.9
578.955	66.88
579.288	66.83
579.62	66.68
579.953	66.53
580.285	66.66
580.618	66.69
580.95	66.68
581.282	66.76
581.615	66.86
581.947	66.65
582.279	66.79
582.611	66.9
582.943	66.61
583.275	66.62
583.607	66.69
583.939	66.51
584.271	66.62
584.603	66.92
584.935	66.84
585.267	66.67
585.598	66.85
585.93	66.97
586.262	66.99
586.593	67.03
586.925	67.08
587.256	66.97
587.588	66.9
587.919	67.01
588.25	67.09
588.582	67.1
588.913	67.24
589.244	67.35
589.575	67.44
589.907	67.36
590.238	67.41
590.569	67.46
590.9	67.53
591.231	67.72
591.562	67.56
591.892	67.51
592.223	67.57
592.554	67.67
592.885	67.65
593.215	67.75
593.546	67.58
593.877	67.4
594.207	67.29
594.538	67.23
594.868	67.2
595.198	67.23
595.529	67.18
595.859	67.19
596.189	67.36
596.52	67.47
596.85	67.5
597.18	67.3
597.51	67.2
597.84	67.02
598.17	67.05
598.5	67.1
598.83	67.07
599.16	67.03
599.489	66.93
599.819	66.99
600.149	66.98
600.479	66.95
600.808	66.78
601.138	66.66
601.467	66.6
601.797	66.82
602.126	66.74
602.456	66.81
602.785	66.89
603.114	66.73
603.443	66.79
603.773	66.91
604.102	67.06
604.431	66.98
604.76	66.83
605.089	66.61
605.418	66.6
605.747	66.54
606.076	66.61
606.405	66.49
606.733	66.5
607.062	66.47
607.391	66.44
607.72	66.34
608.048	66.34
608.377	66.47
608.705	66.41
609.034	66.38
609.362	66.56
609.69	66.58
610.019	66.58
610.347	66.68
610.675	66.7
611.004	66.62
611.332	66.83
611.66	66.88
611.988	66.84
612.316	66.83
612.644	66.85
612.972	66.84
613.3	67.1
613.627	67.12
613.955	67.27
614.283	67.01
614.611	66.98
614.938	67.06
615.266	66.98
615.593	66.94
615.921	67.14
616.248	67.27
616.576	66.99
616.903	67.02
617.23	67.01
617.558	66.98
617.885	67.03
618.212	66.85
618.539	66.86
618.866	66.34
619.193	66.22
619.52	66.01
619.847	65.94
620.174	65.9
620.501	65.81
620.828	65.74
621.155	66.07
621.481	65.7
621.808	65.64
622.135	65.46
622.461	65.64
622.788	65.77
623.114	65.54
623.441	65.21
623.767	65.21
624.093	65.14
624.42	64.72
624.746	65.04
625.072	65.17
625.398	65.51
625.725	65.16
626.051	65.18
626.377	65.44
626.703	65.15
627.029	65.54
627.354	65.45
627.68	65.11
628.006	65
628.332	65.04
628.658	65.04
628.983	64.7
629.309	64.16
629.634	64.2
629.96	63.96
630.285	64.1
630.611	63.94
630.936	63.98
631.262	64.15
631.587	64.5
631.912	64.51
632.237	64.57
632.562	65.63
632.887	65.36
633.213	65
633.538	64.92
633.863	65.11
634.187	65.16
634.512	65.01
634.837	65.07
635.162	65.02
635.487	64.78
635.811	65.51
636.136	65.63
636.461	65.75
636.785	65.73
637.11	66.38
637.434	66.2
637.758	66.04
638.083	65.95
638.407	65.53
638.731	65.59
639.056	65.58
639.38	66.24
639.704	66.63
640.028	66.69
640.352	66.54
640.676	65.51
641	65.16
641.324	65.02
641.648	64.42
641.972	64.3
642.295	63.07
642.619	63.3
642.943	63.22
643.266	63.17
643.59	63.83
643.913	63.3
644.237	63.55
644.56	63.21
644.884	62.96
645.207	62.56
645.53	62.72
645.854	62.96
646.177	63.54
646.5	64.02
646.823	64
647.146	63.69
647.469	63
647.792	62.49
648.115	62.65
648.438	62.68
648.761	64.83
649.084	65.88
649.406	66.38
649.729	66.42
650.052	66.51
650.374	66.74
650.697	66.55
651.019	66.73
651.342	66.69
651.664	66.7
651.987	66.86
652.309	66.7
652.631	66.87
652.953	67.09
653.276	66.95
653.598	66.79
653.92	66.87
654.242	66.88
654.564	66.84
654.886	66.83
655.208	66.93
655.53	66.98
655.851	67.09
656.173	67.06
656.495	67
656.816	66.42
657.138	66
657.46	65.66
657.781	65.66
658.103	65.26
658.424	65.22
658.746	65.09
659.067	64.92
659.388	65.24
659.709	64.86
660.031	64.56
660.352	63.75
660.673	62.96
660.994	61.94
661.315	62.76
661.636	63.72
661.957	63.57
662.278	63.32
662.599	63.18
662.919	63.19
663.24	63.19
663.561	62.31
663.881	61.61
664.202	61.3
664.523	60.78
664.843	60.86
665.164	61.55
665.484	61.48
665.804	60.98
666.125	61.18
666.445	61.65
666.765	61.87
667.085	61.33
667.405	61.3
667.726	61.71
668.046	61.58
668.366	61.93
668.686	62.03
669.005	62.38
669.325	61.89
669.645	61.58
669.965	60.83
670.285	60.96
670.604	61.27
670.924	61.68
671.243	62.05
671.563	62.43
671.882	62.42
672.202	62.29
672.521	63.08
672.841	62.04
673.16	61.25
673.479	61.09
673.798	61.41
674.117	61.99
674.437	61.91
674.756	62.29
675.075	62.59
675.394	62.12
675.713	62.35
676.031	62.5
676.35	63.14
676.669	63.43
676.988	63.93
677.306	63.46
677.625	63.38
677.944	64.3
678.262	64.89
678.581	64.92
678.899	64.97
679.218	64.55
679.536	64.72
679.854	65.1
680.172	65.18
680.491	64.81
680.809	65.25
681.127	65.39
681.445	65.84
681.763	65.67
682.081	64.67
682.399	64.54
682.717	63.79
683.035	64.14
683.352	63.41
683.67	62.72
683.988	63.14
684.306	62.84
684.623	62.48
684.941	62.32
685.258	62.9
685.576	63.26
685.893	63.42
686.211	62.98
686.528	62.49
686.845	62.58
687.162	62.51
687.48	62.95
687.797	62.87
688.114	62.35
688.431	62.26
688.748	62.26
689.065	61.98
689.382	62.1
689.699	62.66
690.015	63.05
690.332	63.26
690.649	64.12
690.966	63.68
691.282	65.19
691.599	65.18
691.915	64.42
692.232	64.24
692.548	65.23
692.865	65.15
693.181	65.23
693.497	64.82
693.813	64.39
694.13	63.94
694.446	64.11
694.762	63.7
695.078	63.34
695.394	63.12
695.71	62.22
696.026	62.73
696.342	63.64
696.658	64.15
696.973	66.19
697.289	65.76
697.605	65.24
697.92	65.4
698.236	64.46
698.551	63.82
698.867	63.79
699.182	63.72
699.498	64.62
699.813	65.08
700.128	66.15
700.444	65.13
700.759	65.63
701.074	65.04
701.389	64.93
701.704	65.08
702.019	65.34
702.334	66.45
702.649	65.92
702.964	66.63
703.279	66.67
703.594	67.87
703.908	67.31
704.223	67.03
704.538	66.68
704.852	65.18
705.167	64.44
705.481	64.54
705.796	64.5
706.11	64.33
706.425	64.26
706.739	64.39
707.053	64.31
707.368	64.06
707.682	64.58
707.996	63.91
708.31	63.97
708.624	63.73
708.938	63.78
709.252	64.32
709.566	64.51
709.88	65.02
710.193	63.11
710.507	63.9
710.821	64.28
711.135	64.11
711.448	63.75
711.762	63.99
712.075	63.63
712.389	64.19
712.702	63.73
713.015	64.7
713.329	64.45
713.642	64.28
713.955	65.74
714.269	66.14
714.582	66.55
714.895	65.5
715.208	65.52
715.521	66.51
715.834	67.33
716.147	68.2
716.459	68.34
716.772	68.55
717.085	67.48
717.398	67.01
717.71	66.75
718.023	67.56
718.336	66.57
718.648	65.9
718.961	65.73
719.273	65.81
719.585	65.73
719.898	66.44
720.21	65.69
720.522	66.1
720.834	65.97
721.147	66.27
721.459	65.54
721.771	66.04
722.083	65.88
722.395	66.49
722.707	67.48
723.019	66.08
723.33	63.44
723.642	62.27
723.954	61.71
724.265	61.8
724.577	62.26
724.889	62.81
725.2	63.09
725.512	61.93
725.823	61.8
726.135	63.45
726.446	62.46
726.757	62.58
727.068	64.11
727.38	64.74
727.691	63.86
728.002	64.57
728.313	64.94
728.624	65.09
728.935	65.31
729.246	66
729.557	64.95
729.867	65.67
730.178	64.63
730.489	65.79
730.8	67.07
731.11	68.33
731.421	67.66
731.731	67.89
732.042	67.23
732.352	66.41
732.663	66.61
732.973	66.43
733.283	67.12
733.594	67.83
733.904	67.41
734.214	68.03
734.524	67.6
734.834	67.53
735.144	67.27
735.454	67.98
735.764	66.76
736.074	66.69
736.384	67.09
736.694	67.08
737.003	67.56
737.313	68.97
737.623	68.11
737.932	67.46
738.242	66.15
738.551	65.29
738.861	64.02
739.17	66.08
739.479	64.17
739.789	65.02
740.098	65.34
740.407	65.56
740.716	67.6
741.025	68.19
741.334	68.14
741.643	67.55
741.952	66.54
742.261	67.02
742.57	65.42
742.879	66.6
743.188	66.8
743.497	66.88
743.805	66.86
744.114	67.63
744.422	67.86
744.731	67.09
745.04	64.11
745.348	65.42
745.656	66.72
745.965	66.19
746.273	67.39
746.581	69.95
746.889	68.59
747.198	71.16
747.506	69.84
747.814	69.79
748.122	68.25
748.43	64.3
748.738	63.08
749.046	63.16
749.353	64.66
749.661	66.94
749.969	66.8
750.277	65.51
750.584	64.14
750.892	64.29
751.199	67.34
751.507	66.42
751.814	65.26
752.122	63.9
752.429	62.63
752.736	64.55
753.044	62.34
753.351	62.73
753.658	62.35
753.965	62.54
754.272	61.65
754.579	61.5
754.886	60.2
755.193	61.12
755.5	62.24
755.807	63.18
756.114	65.28
756.42	64.17
756.727	64.01
757.034	62.92
757.34	61.25
757.647	60.17
757.953	61.17
758.26	61.03
758.566	60.49
758.872	58.79
759.179	58.8
759.485	57.16
759.791	57.97
760.097	58.78
760.403	56.73
760.709	57.24
761.015	58.13
761.321	58.62
761.627	57.53
761.933	55.97
762.239	55.87
762.545	55.61
762.851	54.45
763.156	53.05
763.462	51
763.767	47.21
764.073	46.33
764.378	43.97
764.684	44.94
764.989	45.69
765.295	49.84
765.6	49.13
765.905	47.92
766.21	46.19
766.515	45.13
766.821	43.74
767.126	42.49
767.431	40.4
767.736	40.81
768.041	38.01
768.345	40.43
768.65	40.06
768.955	37.28
769.26	39.2
769.564	40.15
769.869	40.55
770.174	41.13
770.478	45.1
770.783	41.75
771.087	46
771.391	51.82
771.696	56.74
772	60.46
772.304	62.75
772.608	58.43
772.913	60.05
773.217	50.25
773.521	49.74
773.825	50.74
774.129	51.98
774.433	57.22
774.736	52.62
775.04	52.86
775.344	51.84
775.648	54.84
775.951	51.49
776.255	42.71
776.559	42.34
776.862	40.21
777.166	43.65
777.469	36.83
777.772	40.25
778.076	36.08
778.379	39.19
778.682	34.05
778.985	25.14
779.289	22.83
779.592	25.79
779.895	24.39
780.198	25.24
780.501	19.13
780.804	25.87
781.106	25.48
781.409	20.01
781.712	20.2
782.015	4.13
782.317	6.9
782.62	4.22
782.923	-4.36
783.225	-3.4
783.527	-1.23
783.83	0.5
784.132	1.42
784.435	-1.77
784.737	0.53
785.039	3.31
785.341	9.83
785.643	-1.51
785.945	-3.01
786.248	4.49
786.55	20.53
786.851	20.64
787.153	11.44
787.455	17.28
787.757	17.44
788.059	8.29
788.36	-0.57
788.662	-4.17
788.964	-2.07
789.265	-1.55
789.567	22.62
789.868	30.28
790.17	35.2
790.471	31.33
790.772	20.28
791.074	0.79
791.375	-1.22
791.676	0.64
791.977	-2.23
792.278	-3.77
792.579	-4.2
792.88	-20.96
793.181	-0.65
793.482	-8.94
793.783	-15.26
794.083	-17.82
794.384	-6.86
794.685	-9.04
794.986	-43.44
795.286	-63.94
795.587	-43.2
795.887	-29.85
796.188	-8.19
796.488	-2.11
796.788	-9.75
797.089	-29.33
797.389	-32.41
797.689	-35.45
797.989	-35.33
798.289	-29.56
798.589	-14.95
798.889	-23
799.189	-24.2
799.489	-7.21
799.789	-18.45
800.089	-32.25
800.389	-36.78
800.688	-46.13
800.988	-33.57
801.288	-27.89
801.587	-47
801.887	-74.01
802.186	-85.38
802.486	-61.14
802.785	-54.32
803.085	-75.23
803.384	-80.72
803.683	-128.44
803.982	-135.92
804.281	-164.84
804.58	-161.58
804.879	-373.84
805.178	-464.34
805.477	-284.24
805.776	-250.96
806.075	-339.15
806.374	-199.13
806.673	-216.04
806.971	-413.68
807.27	-2940
807.569	-4194.25
807.867	-2609.24
808.166	1183.77
808.464	1201.68
808.763	520.27
809.061	344.01
809.359	317.13
809.658	316.29
809.956	217.12
810.254	172.26
810.552	199.94
810.85	212.74
811.148	201.78
811.446	222.97
811.744	231.26
812.042	197.34
812.34	184.26
812.638	213.38
812.935	180.35
813.233	227.66
813.531	340.16
813.828	325.22
814.126	315.97
814.423	374.07
814.721	446.05
815.018	371.39
815.316	404.26
815.613	427.3
815.91	435.52
816.207	369.98
816.504	331.15
816.802	548.62
817.099	366.67
817.396	627.83
817.693	893.56
817.99	1159.8
818.286	795.18
818.583	-1382.2
818.88	1220
819.177	806.65
819.473	972.33
819.77	1129.04
820.067	3009.45
820.363	8900
820.66	-3296.72
820.956	1697.44
821.252	-12679.49
821.549	3282.48
821.845	4404.13
822.141	-2989.82
822.437	-815.27
822.734	-1260.77
823.03	1998.22
823.326	521.73
823.622	828.96
823.918	6794.74
824.213	1401.07
824.509	1277.1
824.805	746.65
825.101	444.46
825.397	324.98
825.692	578.76
825.988	217.49
826.283	367.04
826.579	713.29
826.874	-4366.02
827.17	-10710.26
827.465	1020.47
827.76	520.62
828.056	517.27
828.351	1812.45
828.646	503.54
828.941	813.51
829.236	713.56
829.531	489.65
829.826	358.5
830.121	402.29
830.416	543.34
830.711	461.54
831.006	446.68
831.3	457.64
831.595	339.4
831.89	304.69
832.184	237.1
832.479	235.56
832.773	260.95
833.068	227.22
833.362	231.74
833.656	222.24
833.951	204.18
834.245	207.68
834.539	246.22
834.833	270.81
835.127	243.41
835.421	218.61
835.715	197.35
836.009	232.07
836.303	202.8
836.597	190.58
836.891	184.01
837.185	195.83
837.478	164.71
837.772	150.26
838.066	162
838.359	187.97
838.653	187.99
838.946	203.57
839.24	246.34
839.533	279.25
839.826	405.67
840.119	389.77
840.413	400.95
840.706	441.1
840.999	312.15
841.292	323.31
841.585	242.23
841.878	192.77
842.171	197.45
842.464	341.72
842.757	355.17
843.049	338.93
843.342	275.01
843.635	300.28
843.927	373.75
844.22	401.86
844.513	554.47
844.805	1122.43
845.098	1637.88
845.39	1683.06
845.682	1415.19
845.975	2167.92
846.267	742.62
846.559	524.81
846.851	426.46
847.143	294.07
847.435	399.82
847.727	411.52
848.019	557.03
848.311	1208.39
848.603	2431.33
848.895	-1673.7
849.186	-420.91
849.478	-23378.26
849.77	1464.13
850.061	2335.19
850.353	-3926.89
850.645	-603.84
850.936	-499.71
851.227	-49842.86
851.519	-967.52
851.81	582.62
852.101	392.33
852.393	907.37
852.684	-1399.34
852.975	-439.78
853.266	-179.15
853.557	-148.42
853.848	-64.93
854.139	-23.38
854.43	-54.75
854.72	-110.86
855.011	-171.98
855.302	-200.37
855.593	-262.85
855.883	-421.23
856.174	-381.45
856.464	-1653.01
856.755	1825.41
857.045	1001.86
857.336	873.41
857.626	-3366.67
857.916	2500
858.206	-13708.7
858.497	-368.9
858.787	-507.29
859.077	-791.43
859.367	-320.09
859.657	-594.6
859.947	-2510.78
860.237	3189.05
860.527	630.53
860.816	469.85
861.106	225.48
861.396	272.99
861.685	404.97
861.975	604.88
862.265	833.5
862.554	498.39
862.844	-2046.45
863.133	-1417.87
863.422	-1587.45
863.712	-563.55
864.001	-208.32
864.29	-193.84
864.579	-215.72
864.868	-350.96
865.157	-342.3
865.446	-477.34
865.735	-744.36
866.024	-618.15
866.313	-326.28
866.602	-557.14
866.891	-405.6
867.179	-235.38
867.468	-210.48
