Data from T2_Reflection__4__18-48-50-286.txt Node

Date: Fri Jun 04 18:48:50 CEST 2021
User: mabdelazizm
Spectrometer: FLMS18565
Trigger mode: 0
Integration Time (sec): 2.000000E0
Scans to average: 1
Electric dark correction enabled: true
Nonlinearity correction enabled: false
Boxcar width: 12
XAxis mode: Wavelengths
Number of Pixels in Spectrum: 2048
>>>>>Begin Spectral Data<<<<<
179.071	81.56
179.452	47.07
179.833	31.93
180.214	26.92
180.595	-28.46
180.977	-9.89
181.358	0.35
181.739	-39.11
182.12	10.18
182.501	-20.05
182.882	-80.98
183.262	-462.86
183.643	-86.88
184.024	-78.91
184.405	-48.69
184.786	-37.96
185.166	-42.48
185.547	-18.72
185.927	-9.18
186.308	-11.73
186.689	-7.69
187.069	-17.59
187.449	-17.52
187.83	-14.48
188.21	-11.06
188.59	-8.2
188.971	-8.25
189.351	-5.74
189.731	-3.31
190.111	0.29
190.491	-2.54
190.871	-3.89
191.251	-0.78
191.631	2.76
192.011	4.3
192.391	8.77
192.771	9.34
193.151	8.48
193.531	8.71
193.91	10.37
194.29	10.75
194.67	13.39
195.049	10.19
195.429	8.39
195.808	10.48
196.188	8.77
196.567	9.41
196.946	13.49
197.326	10.08
197.705	8.35
198.084	7.11
198.464	6.8
198.843	7.9
199.222	6.95
199.601	4.82
199.98	6.31
200.359	8.01
200.738	8.02
201.117	5.05
201.496	2.47
201.875	1.78
202.254	3.12
202.632	2.7
203.011	4.13
203.39	3.7
203.768	5.23
204.147	3.49
204.525	5.07
204.904	3.41
205.282	1.79
205.661	0.72
206.039	2.8
206.418	-0.92
206.796	2.55
207.174	1.47
207.552	2.83
207.931	3.62
208.309	4.1
208.687	2.43
209.065	6.1
209.443	6.17
209.821	4.69
210.199	3.6
210.577	3.2
210.954	6.88
211.332	4.9
211.71	1.61
212.088	3.65
212.465	3.08
212.843	3.59
213.221	2.55
213.598	3.52
213.976	0.78
214.353	1.23
214.731	3.16
215.108	3.06
215.485	1.96
215.863	2
216.24	-0.11
216.617	1.47
216.994	-0.1
217.371	-0.72
217.749	-1.89
218.126	-2.07
218.503	-4.14
218.88	-5.38
219.256	-5.97
219.633	-5.06
220.01	-5.41
220.387	-5.57
220.764	-4.85
221.14	-1.88
221.517	-2.55
221.894	-2.71
222.27	-3.53
222.647	-4.35
223.023	-4.21
223.4	-3.63
223.776	-2.77
224.153	-2.99
224.529	-2.27
224.905	-2.36
225.282	-1.86
225.658	-2.07
226.034	-2.22
226.41	-1.43
226.786	-1.39
227.162	-0.81
227.538	-0.56
227.914	-0.42
228.29	-0.18
228.666	0.1
229.042	-0.18
229.418	0.1
229.793	-0.14
230.169	-0.03
230.545	-0.34
230.92	-0.29
231.296	-0.04
231.672	0.1
232.047	0.41
232.422	0.32
232.798	0.48
233.173	0.49
233.549	0.61
233.924	0.67
234.299	0.88
234.674	0.8
235.05	0.92
235.425	0.93
235.8	0.86
236.175	1.06
236.55	1.04
236.925	1.12
237.3	1.29
237.675	1.37
238.049	1.24
238.424	1.24
238.799	1.27
239.174	1.38
239.548	1.32
239.923	1.34
240.297	1.29
240.672	1.17
241.046	1.24
241.421	1.18
241.795	1.2
242.17	1.06
242.544	1.05
242.918	0.91
243.293	0.88
243.667	0.8
244.041	0.82
244.415	0.89
244.789	0.85
245.163	0.86
245.537	0.77
245.911	0.78
246.285	0.69
246.659	0.68
247.033	0.67
247.406	0.76
247.78	0.8
248.154	0.73
248.528	0.74
248.901	0.77
249.275	0.76
249.648	0.83
250.022	0.87
250.395	0.8
250.769	0.75
251.142	0.76
251.515	0.79
251.888	0.8
252.262	0.83
252.635	0.83
253.008	0.82
253.381	0.83
253.754	0.77
254.127	0.84
254.5	0.8
254.873	0.85
255.246	0.79
255.619	0.88
255.992	0.88
256.364	0.86
256.737	0.84
257.11	0.8
257.483	0.84
257.855	0.81
258.228	0.79
258.6	0.8
258.973	0.78
259.345	0.76
259.718	0.78
260.09	0.81
260.462	0.81
260.834	0.83
261.207	0.83
261.579	0.85
261.951	0.89
262.323	0.9
262.695	0.91
263.067	0.93
263.439	0.94
263.811	0.97
264.183	0.93
264.555	0.97
264.927	0.95
265.298	0.93
265.67	0.91
266.042	0.93
266.413	0.95
266.785	0.94
267.156	0.96
267.528	0.97
267.899	0.96
268.271	1
268.642	0.97
269.013	0.97
269.385	0.97
269.756	0.98
270.127	0.93
270.498	0.92
270.87	0.92
271.241	0.88
271.612	0.87
271.983	0.86
272.354	0.83
272.724	0.8
273.095	0.84
273.466	0.83
273.837	0.8
274.208	0.79
274.578	0.79
274.949	0.82
275.32	0.79
275.69	0.78
276.061	0.77
276.431	0.75
276.802	0.73
277.172	0.74
277.542	0.71
277.913	0.76
278.283	0.75
278.653	0.74
279.023	0.73
279.394	0.78
279.764	0.79
280.134	0.8
280.504	0.8
280.874	0.82
281.244	0.79
281.614	0.8
281.983	0.74
282.353	0.73
282.723	0.78
283.093	0.79
283.462	0.78
283.832	0.8
284.202	0.81
284.571	0.78
284.941	0.78
285.31	0.83
285.68	0.82
286.049	0.79
286.418	0.77
286.788	0.77
287.157	0.75
287.526	0.73
287.895	0.71
288.264	0.71
288.633	0.67
289.002	0.65
289.371	0.67
289.74	0.65
290.109	0.64
290.478	0.63
290.847	0.63
291.216	0.68
291.585	0.63
291.953	0.52
292.322	0.45
292.691	0.4
293.059	0.35
293.428	0.32
293.796	0.37
294.165	0.36
294.533	0.35
294.901	0.34
295.27	0.39
295.638	0.38
296.006	0.29
296.374	0.28
296.743	0.26
297.111	0.29
297.479	0.31
297.847	0.34
298.215	0.3
298.583	0.2
298.95	0.21
299.318	0.16
299.686	0.16
300.054	0.14
300.422	0.15
300.789	0.15
301.157	0.22
301.525	0.32
301.892	0.35
302.26	0.34
302.627	0.39
302.994	0.37
303.362	0.44
303.729	0.44
304.097	0.38
304.464	0.36
304.831	0.33
305.198	0.41
305.565	0.44
305.932	0.45
306.299	0.43
306.666	0.38
307.033	0.36
307.4	0.39
307.767	0.41
308.134	0.39
308.501	0.45
308.867	0.46
309.234	0.48
309.601	0.49
309.967	0.46
310.334	0.5
310.701	0.5
311.067	0.53
311.433	0.54
311.8	0.41
312.166	0.43
312.533	0.35
312.899	0.31
313.265	0.39
313.631	0.4
313.997	0.41
314.363	0.38
314.729	0.37
315.096	0.38
315.461	0.35
315.827	0.37
316.193	0.36
316.559	0.41
316.925	0.45
317.291	0.46
317.656	0.46
318.022	0.46
318.388	0.46
318.753	0.43
319.119	0.46
319.484	0.47
319.85	0.45
320.215	0.41
320.581	0.41
320.946	0.5
321.311	0.48
321.676	0.47
322.042	0.51
322.407	0.43
322.772	0.44
323.137	0.48
323.502	0.52
323.867	0.54
324.232	0.52
324.597	0.57
324.962	0.58
325.327	0.59
325.691	0.53
326.056	0.52
326.421	0.51
326.785	0.51
327.15	0.45
327.514	0.45
327.879	0.44
328.243	0.45
328.608	0.35
328.972	0.37
329.337	0.33
329.701	0.32
330.065	0.29
330.429	0.3
330.794	0.36
331.158	0.31
331.522	0.33
331.886	0.32
332.25	0.26
332.614	0.25
332.978	0.21
333.342	0.22
333.705	0.2
334.069	0.2
334.433	0.18
334.797	0.2
335.16	0.18
335.524	0.19
335.887	0.15
336.251	0.18
336.614	0.15
336.978	0.15
337.341	0.12
337.705	0.17
338.068	0.13
338.431	0.22
338.794	0.19
339.158	0.22
339.521	0.16
339.884	0.09
340.247	0.13
340.61	0.15
340.973	0.12
341.336	0.14
341.699	0.07
342.062	0.02
342.424	0.03
342.787	0.01
343.15	0
343.512	0.03
343.875	0.02
344.238	0.09
344.6	0.09
344.963	0.12
345.325	0.09
345.688	0.08
346.05	0.05
346.412	0.08
346.775	0.04
347.137	0.02
347.499	-0.05
347.861	0.02
348.223	-0
348.585	-0
348.947	-0.02
349.309	-0.06
349.671	-0.05
350.033	-0.03
350.395	-0.02
350.757	-0.02
351.118	-0.01
351.48	-0.03
351.842	0.08
352.203	0.09
352.565	0.03
352.927	0.03
353.288	-0.05
353.65	-0.07
354.011	-0.06
354.372	0.06
354.734	0.06
355.095	0.12
355.456	0.12
355.817	0.1
356.179	0.09
356.54	0.12
356.901	0.05
357.262	0
357.623	0.01
357.984	0.06
358.345	0.1
358.705	0.1
359.066	0.12
359.427	0.12
359.788	0.16
360.148	0.2
360.509	0.17
360.87	0.09
361.23	0.06
361.591	0.14
361.951	0.1
362.312	0.09
362.672	0.09
363.032	0.06
363.393	0
363.753	-0.01
364.113	-0.11
364.473	-0.15
364.833	-0.09
365.193	-0.07
365.553	-0.09
365.913	-0.07
366.273	-0.06
366.633	-0.05
366.993	-0.09
367.353	-0.15
367.713	-0.14
368.072	-0.18
368.432	-0.15
368.792	-0.2
369.151	-0.25
369.511	-0.21
369.87	-0.24
370.23	-0.25
370.589	-0.25
370.949	-0.25
371.308	-0.25
371.667	-0.25
372.027	-0.18
372.386	-0.18
372.745	-0.15
373.104	-0.13
373.463	-0.11
373.822	-0.13
374.181	-0.15
374.54	-0.11
374.899	-0.06
375.258	-0.06
375.617	-0.08
375.975	-0.04
376.334	-0.06
376.693	-0.04
377.052	0.02
377.41	-0.01
377.769	0.05
378.127	0.09
378.486	0.07
378.844	0.06
379.202	0.04
379.561	-0
379.919	0.01
380.277	0.03
380.636	0.02
380.994	-0.09
381.352	-0.08
381.71	-0.12
382.068	-0.06
382.426	-0.05
382.784	-0.03
383.142	-0.08
383.5	-0.13
383.857	-0.16
384.215	-0.16
384.573	-0.18
384.931	-0.15
385.288	-0.17
385.646	-0.29
386.003	-0.32
386.361	-0.34
386.718	-0.32
387.076	-0.35
387.433	-0.35
387.791	-0.29
388.148	-0.27
388.505	-0.26
388.862	-0.23
389.22	-0.24
389.577	-0.15
389.934	-0.12
390.291	-0.16
390.648	-0.1
391.005	-0.17
391.362	-0.19
391.718	-0.22
392.075	-0.26
392.432	-0.2
392.789	-0.15
393.145	-0.14
393.502	-0.12
393.859	-0.15
394.215	-0.06
394.572	0
394.928	-0.01
395.285	0
395.641	-0.05
395.997	-0.05
396.354	-0.06
396.71	-0.06
397.066	-0.03
397.422	-0.01
397.778	-0.11
398.134	-0.08
398.491	-0.21
398.846	-0.25
399.202	-0.19
399.558	-0.28
399.914	-0.2
400.27	-0.18
400.626	-0.22
400.981	-0.12
401.337	-0.12
401.693	-0.16
402.048	-0.2
402.404	-0.17
402.759	-0.17
403.115	-0.19
403.47	-0.19
403.826	-0.2
404.181	-0.23
404.536	-0.21
404.892	-0.23
405.247	-0.24
405.602	-0.32
405.957	-0.35
406.312	-0.38
406.667	-0.32
407.022	-0.33
407.377	-0.32
407.732	-0.19
408.087	-0.33
408.442	-0.31
408.796	-0.38
409.151	-0.36
409.506	-0.24
409.86	-0.27
410.215	-0.36
410.57	-0.36
410.924	-0.27
411.279	-0.25
411.633	-0.28
411.987	-0.34
412.342	-0.35
412.696	-0.37
413.05	-0.34
413.404	-0.34
413.758	-0.28
414.113	-0.27
414.467	-0.18
414.821	-0.19
415.175	-0.17
415.529	-0.15
415.882	-0.15
416.236	-0.09
416.59	-0.17
416.944	-0.06
417.298	0.03
417.651	0.1
418.005	0.2
418.358	0.22
418.712	0.26
419.065	0.32
419.419	0.34
419.772	0.2
420.126	0.26
420.479	0.33
420.832	0.36
421.185	0.47
421.539	0.52
421.892	0.56
422.245	0.59
422.598	0.63
422.951	0.69
423.304	0.7
423.657	0.79
424.01	0.89
424.363	0.95
424.715	0.99
425.068	1.05
425.421	1.15
425.773	1.17
426.126	1.33
426.479	1.4
426.831	1.39
427.184	1.39
427.536	1.43
427.889	1.53
428.241	1.65
428.593	1.88
428.945	1.94
429.298	2.07
429.65	2.21
430.002	2.28
430.354	2.48
430.706	2.63
431.058	2.79
431.41	2.88
431.762	2.88
432.114	3.03
432.466	3.15
432.817	3.31
433.169	3.46
433.521	3.6
433.872	3.65
434.224	3.76
434.576	3.91
434.927	3.86
435.279	3.88
435.63	4.04
435.981	4.15
436.333	4.33
436.684	4.53
437.035	4.59
437.387	4.68
437.738	4.71
438.089	4.8
438.44	4.87
438.791	4.83
439.142	4.83
439.493	4.87
439.844	4.93
440.195	5.06
440.545	5.3
440.896	5.34
441.247	5.39
441.598	5.4
441.948	5.41
442.299	5.45
442.649	5.61
443	5.66
443.35	5.75
443.701	5.83
444.051	5.89
444.401	5.93
444.752	5.98
445.102	5.93
445.452	5.9
445.802	5.96
446.152	5.96
446.502	6.03
446.852	6.01
447.202	6.12
447.552	6.27
447.902	6.39
448.252	6.38
448.602	6.6
448.952	6.62
449.301	6.61
449.651	6.71
450.001	6.71
450.35	6.73
450.7	6.81
451.049	6.9
451.399	6.98
451.748	7.08
452.097	7.21
452.447	7.29
452.796	7.54
453.145	7.63
453.494	7.68
453.843	7.91
454.193	8.05
454.542	8.16
454.891	8.36
455.239	8.47
455.588	8.7
455.937	8.73
456.286	8.89
456.635	8.87
456.984	9.02
457.332	9.05
457.681	9.2
458.03	9.43
458.378	9.52
458.727	9.66
459.075	9.77
459.423	9.99
459.772	10.11
460.12	10.27
460.468	10.45
460.817	10.62
461.165	10.77
461.513	10.72
461.861	10.77
462.209	10.96
462.557	11.04
462.905	11.08
463.253	11.19
463.601	11.31
463.949	11.38
464.297	11.4
464.644	11.51
464.992	11.58
465.34	11.78
465.687	11.89
466.035	11.83
466.383	11.89
466.73	11.86
467.078	11.87
467.425	11.91
467.772	12.04
468.12	11.99
468.467	12.03
468.814	12
469.161	11.93
469.508	11.84
469.856	11.81
470.203	11.71
470.55	11.62
470.897	11.56
471.243	11.41
471.59	11.37
471.937	11.24
472.284	11.06
472.631	10.99
472.977	10.91
473.324	10.89
473.671	10.74
474.017	10.64
474.364	10.5
474.71	10.46
475.057	10.39
475.403	10.37
475.749	10.24
476.096	10.21
476.442	10.11
476.788	10.1
477.134	10.07
477.48	10.01
477.826	10
478.172	9.93
478.518	9.9
478.864	10.11
479.21	10.25
479.556	10.26
479.902	10.38
480.248	10.48
480.593	10.58
480.939	10.66
481.285	10.82
481.63	10.97
481.976	11.07
482.321	11.23
482.667	11.33
483.012	11.49
483.357	11.69
483.703	11.86
484.048	12.01
484.393	12.35
484.738	12.56
485.084	12.76
485.429	12.94
485.774	13.18
486.119	13.49
486.464	13.74
486.808	14.06
487.153	14.38
487.498	14.6
487.843	14.83
488.188	15.27
488.532	15.65
488.877	16.06
489.222	16.43
489.566	16.87
489.911	17.24
490.255	17.65
490.6	18.01
490.944	18.43
491.288	18.9
491.633	19.33
491.977	19.67
492.321	20.11
492.665	20.61
493.009	20.99
493.353	21.41
493.697	21.88
494.041	22.38
494.385	22.81
494.729	23.29
495.073	23.84
495.417	24.35
495.76	24.81
496.104	25.33
496.448	25.91
496.791	26.4
497.135	27
497.479	27.54
497.822	28.14
498.165	28.67
498.509	29.24
498.852	29.8
499.196	30.36
499.539	30.93
499.882	31.51
500.225	32.1
500.568	32.77
500.911	33.34
501.254	33.85
501.597	34.37
501.94	34.93
502.283	35.47
502.626	36.02
502.969	36.59
503.312	37.05
503.654	37.61
503.997	38.08
504.34	38.64
504.682	39.13
505.025	39.65
505.367	40.2
505.71	40.53
506.052	41
506.395	41.55
506.737	42.08
507.079	42.58
507.421	43.06
507.764	43.63
508.106	44.03
508.448	44.4
508.79	44.84
509.132	45.25
509.474	45.63
509.816	46.07
510.158	46.5
510.499	46.92
510.841	47.26
511.183	47.64
511.525	48.04
511.866	48.54
512.208	48.81
512.549	49.17
512.891	49.53
513.232	49.97
513.574	50.3
513.915	50.53
514.256	51.01
514.598	51.37
514.939	51.6
515.28	51.81
515.621	52.19
515.962	52.49
516.303	52.76
516.644	52.98
516.985	53.3
517.326	53.55
517.667	53.71
518.008	53.99
518.349	54.23
518.69	54.49
519.03	54.69
519.371	55.07
519.712	55.32
520.052	55.43
520.393	55.52
520.733	55.67
521.074	55.96
521.414	56.32
521.754	56.47
522.095	56.62
522.435	56.8
522.775	56.94
523.115	57.09
523.455	57.16
523.795	57.24
524.135	57.34
524.475	57.5
524.815	57.61
525.155	57.92
525.495	58.03
525.835	58.15
526.175	58.34
526.514	58.49
526.854	58.57
527.194	58.7
527.533	58.97
527.873	58.98
528.212	58.97
528.552	59.17
528.891	59.32
529.23	59.56
529.57	59.63
529.909	59.6
530.248	59.56
530.587	59.68
530.927	59.77
531.266	59.81
531.605	60.04
531.944	60.14
532.283	60.33
532.621	60.23
532.96	60.31
533.299	60.48
533.638	60.42
533.977	60.55
534.315	60.7
534.654	60.75
534.992	60.77
535.331	60.84
535.67	60.95
536.008	60.98
536.346	61.01
536.685	61.05
537.023	61.04
537.361	61.1
537.7	61.11
538.038	61.08
538.376	61.09
538.714	61.28
539.052	61.32
539.39	61.3
539.728	61.28
540.066	61.11
540.404	61.11
540.741	61.25
541.079	61.43
541.417	61.39
541.755	61.38
542.092	61.43
542.43	61.41
542.767	61.36
543.105	61.33
543.442	61.35
543.78	61.34
544.117	61.24
544.454	61.31
544.792	61.28
545.129	61.37
545.466	61.38
545.803	61.35
546.14	61.34
546.477	61.42
546.814	61.36
547.151	61.31
547.488	61.39
547.825	61.43
548.162	61.44
548.499	61.47
548.835	61.62
549.172	61.6
549.509	61.59
549.845	61.72
550.182	61.66
550.518	61.63
550.855	61.6
551.191	61.62
551.528	61.63
551.864	61.71
552.2	61.77
552.537	61.83
552.873	61.76
553.209	61.99
553.545	61.95
553.881	61.94
554.217	61.89
554.553	62.01
554.889	61.94
555.225	61.97
555.561	61.93
555.896	61.93
556.232	61.98
556.568	62
556.903	61.97
557.239	61.86
557.575	61.97
557.91	61.92
558.245	61.8
558.581	61.97
558.916	62.14
559.252	62.37
559.587	62.45
559.922	62.49
560.257	62.55
560.592	62.54
560.928	62.54
561.263	62.6
561.598	62.4
561.933	62.44
562.267	62.48
562.602	62.55
562.937	62.58
563.272	62.69
563.607	62.76
563.941	62.87
564.276	62.89
564.611	62.93
564.945	63.08
565.28	63.18
565.614	63.1
565.949	62.86
566.283	62.99
566.617	63.02
566.951	63.01
567.286	63.02
567.62	63.07
567.954	63.07
568.288	63.18
568.622	63.08
568.956	63.08
569.29	63.16
569.624	63.06
569.958	63.21
570.292	63.21
570.626	63.35
570.959	63.36
571.293	63.31
571.627	63.35
571.96	63.33
572.294	63.46
572.627	63.45
572.961	63.51
573.294	63.38
573.627	63.44
573.961	63.47
574.294	63.55
574.627	63.53
574.961	63.65
575.294	63.54
575.627	63.69
575.96	63.58
576.293	63.44
576.626	63.42
576.959	63.58
577.292	63.64
577.624	63.57
577.957	63.65
578.29	63.64
578.623	63.65
578.955	63.65
579.288	63.65
579.62	63.62
579.953	63.57
580.285	63.55
580.618	63.46
580.95	63.48
581.282	63.52
581.615	63.73
581.947	63.69
582.279	63.84
582.611	63.86
582.943	63.81
583.275	63.7
583.607	63.83
583.939	63.66
584.271	63.64
584.603	63.78
584.935	63.77
585.267	63.58
585.598	63.61
585.93	63.73
586.262	63.57
586.593	63.52
586.925	63.56
587.256	63.45
587.588	63.47
587.919	63.54
588.25	63.58
588.582	63.71
588.913	63.77
589.244	63.8
589.575	63.78
589.907	63.72
590.238	63.73
590.569	63.67
590.9	63.72
591.231	63.72
591.562	63.74
591.892	63.6
592.223	63.58
592.554	63.74
592.885	63.85
593.215	63.84
593.546	63.77
593.877	63.68
594.207	63.59
594.538	63.71
594.868	63.77
595.198	63.67
595.529	63.54
595.859	63.42
596.189	63.5
596.52	63.59
596.85	63.58
597.18	63.47
597.51	63.3
597.84	63.31
598.17	63.32
598.5	63.2
598.83	63.21
599.16	63.21
599.489	63.34
599.819	63.35
600.149	63.41
600.479	63.44
600.808	63.22
601.138	63.07
601.467	63.06
601.797	63.26
602.126	63.21
602.456	63.29
602.785	63.4
603.114	63.36
603.443	63.53
603.773	63.73
604.102	63.94
604.431	63.8
604.76	63.63
605.089	63.57
605.418	63.54
605.747	63.62
606.076	63.56
606.405	63.48
606.733	63.6
607.062	63.57
607.391	63.5
607.72	63.3
608.048	63.18
608.377	63.18
608.705	63.27
609.034	63.41
609.362	63.58
609.69	63.71
610.019	63.69
610.347	63.83
610.675	63.72
611.004	63.71
611.332	63.56
611.66	63.61
611.988	63.46
612.316	63.5
612.644	63.53
612.972	63.74
613.3	63.72
613.627	63.87
613.955	63.9
614.283	63.79
614.611	63.62
614.938	63.64
615.266	63.74
615.593	64.02
615.921	64.3
616.248	64.73
616.576	64.76
616.903	64.84
617.23	64.69
617.558	64.54
617.885	64.57
618.212	64.46
618.539	64.27
618.866	64.13
619.193	64.04
619.52	64.26
619.847	64.05
620.174	64.19
620.501	63.92
620.828	63.79
621.155	63.67
621.481	63.54
621.808	63.36
622.135	63.43
622.461	63.33
622.788	63.53
623.114	63.44
623.441	62.82
623.767	62.55
624.093	62.4
624.42	62.13
624.746	62.14
625.072	61.86
625.398	62.2
625.725	62.3
626.051	62.03
626.377	62.19
626.703	62.08
627.029	62.34
627.354	62.29
627.68	62
628.006	61.91
628.332	61.84
628.658	61.88
628.983	61.73
629.309	61.61
629.634	61.68
629.96	61.53
630.285	61.5
630.611	61.46
630.936	61.44
631.262	61.96
631.587	62.61
631.912	62.93
632.237	63.04
632.562	63.45
632.887	63.36
633.213	63.62
633.538	63.62
633.863	63.55
634.187	63.59
634.512	63.23
634.837	63.11
635.162	63.19
635.487	63.24
635.811	63.63
636.136	63.95
636.461	63.86
636.785	64.01
637.11	64.67
637.434	64.28
637.758	64.55
638.083	64.79
638.407	64.51
638.731	64.94
639.056	64.68
639.38	64.18
639.704	64.15
640.028	63.87
640.352	63.73
640.676	62.92
641	63.18
641.324	62.88
641.648	62.65
641.972	62.45
642.295	62.09
642.619	62.43
642.943	62.99
643.266	62.78
643.59	62.77
643.913	62.69
644.237	62.6
644.56	62.87
644.884	63.23
645.207	62.7
645.53	63
645.854	63.13
646.177	63.07
646.5	63.14
646.823	63.06
647.146	63.32
647.469	63.35
647.792	63.13
648.115	63.09
648.438	62.96
648.761	63.83
649.084	63.8
649.406	63.64
649.729	63.95
650.052	64.13
650.374	64.06
650.697	63.98
651.019	63.93
651.342	63.95
651.664	64.05
651.987	64.21
652.309	64.17
652.631	64.33
652.953	64.31
653.276	64.23
653.598	64.31
653.92	64.39
654.242	64.4
654.564	64.47
654.886	64.41
655.208	64.52
655.53	64.52
655.851	64.5
656.173	64.61
656.495	64.72
656.816	64.51
657.138	64.7
657.46	64.87
657.781	64.7
658.103	64.44
658.424	64.94
658.746	64.8
659.067	64.84
659.388	64.88
659.709	64.34
660.031	63.49
660.352	63.02
660.673	61.51
660.994	60.94
661.315	61.85
661.636	62.34
661.957	61.72
662.278	62.67
662.599	62.98
662.919	62.15
663.24	61.8
663.561	60.79
663.881	60.96
664.202	60.3
664.523	59.29
664.843	58.85
665.164	58.79
665.484	60.24
665.804	59.56
666.125	59.12
666.445	59.62
666.765	59.22
667.085	59.64
667.405	59.01
667.726	59.19
668.046	59.92
668.366	60.34
668.686	61.13
669.005	60.91
669.325	60.4
669.645	59.41
669.965	59.64
670.285	59.15
670.604	58.35
670.924	58.99
671.243	58.82
671.563	59.77
671.882	59.98
672.202	60.28
672.521	61.3
672.841	61.25
673.16	60.92
673.479	59.83
673.798	61.14
674.117	61.81
674.437	60.76
674.756	61.75
675.075	61.64
675.394	62.02
675.713	61.99
676.031	61.98
676.35	62.12
676.669	61.7
676.988	62.66
677.306	62.97
677.625	63.68
677.944	63.35
678.262	63.44
678.581	63.72
678.899	64.3
679.218	64.53
679.536	64.53
679.854	64.33
680.172	64.1
680.491	63.49
680.809	64.12
681.127	64.04
681.445	64.44
681.763	63.41
682.081	63.22
682.399	63.43
682.717	62.88
683.035	62.54
683.352	63.21
683.67	63.08
683.988	62.92
684.306	62.55
684.623	62.89
684.941	62.36
685.258	62
685.576	61.66
685.893	61.81
686.211	61.42
686.528	61.64
686.845	61.67
687.162	61.68
687.48	61.44
687.797	61.86
688.114	61.87
688.431	62.07
688.748	61.34
689.065	60.74
689.382	61.45
689.699	62.35
690.015	61.76
690.332	62.46
690.649	62.65
690.966	63.16
691.282	62.26
691.599	62.29
691.915	62.82
692.232	63.71
692.548	63.91
692.865	64.25
693.181	64.53
693.497	64.48
693.813	64.58
694.13	64.97
694.446	64.29
694.762	63.66
695.078	62.7
695.394	62.68
695.71	61.74
696.026	60.74
696.342	60.33
696.658	60.55
696.973	61.66
697.289	60.73
697.605	59.89
697.92	61.11
698.236	61.45
698.551	61.31
698.867	60.48
699.182	61.51
699.498	61.99
699.813	61.1
700.128	61.44
700.444	60.68
700.759	60.81
701.074	61.95
701.389	62.34
701.704	62.19
702.019	61.99
702.334	63.17
702.649	63.42
702.964	64.02
703.279	64.45
703.594	65.34
703.908	66.54
704.223	66.69
704.538	66.35
704.852	65.17
705.167	65.16
705.481	64.99
705.796	65.04
706.11	64
706.425	64.31
706.739	64.76
707.053	64.1
707.368	64.37
707.682	63.75
707.996	63.26
708.31	63.39
708.624	63.29
708.938	62.49
709.252	62.33
709.566	62.27
709.88	62.02
710.193	61.41
710.507	60.88
710.821	61.98
711.135	61.27
711.448	60.09
711.762	59.81
712.075	60.23
712.389	61.06
712.702	61.48
713.015	61.46
713.329	61.69
713.642	60.51
713.955	60.86
714.269	60.86
714.582	61.14
714.895	60.29
715.208	59.43
715.521	60.48
715.834	60.73
716.147	60.95
716.459	60.41
716.772	59.82
717.085	59.04
717.398	59.09
717.71	59.07
718.023	58.64
718.336	58.32
718.648	56.65
718.961	56.09
719.273	56.97
719.585	57.24
719.898	57.74
720.21	56.53
720.522	56.78
720.834	57.2
721.147	58.02
721.459	57.2
721.771	57.88
722.083	58.48
722.395	59.83
722.707	60.86
723.019	59.61
723.33	59.1
723.642	59.62
723.954	58.7
724.265	58.11
724.577	57.91
724.889	58.53
725.2	59.27
725.512	60.37
725.823	59.99
726.135	61.1
726.446	61.45
726.757	61.71
727.068	61.26
727.38	61.49
727.691	61.67
728.002	61.96
728.313	62.38
728.624	62.82
728.935	62.69
729.246	63.83
729.557	63.98
729.867	63.49
730.178	62.36
730.489	61.91
730.8	63.56
731.11	63.68
731.421	62.18
731.731	62.35
732.042	63
732.352	63.48
732.663	63.76
732.973	63.31
733.283	62.03
733.594	63.53
733.904	63.72
734.214	64.63
734.524	64.85
734.834	65.74
735.144	65.32
735.454	64.5
735.764	65.35
736.074	65.89
736.384	65.35
736.694	65.73
737.003	66.67
737.313	67.53
737.623	67.31
737.932	67.13
738.242	67.62
738.551	67.07
738.861	67.16
739.17	68.05
739.479	68.93
739.789	68.5
740.098	68.56
740.407	68.93
740.716	71.44
741.025	74.09
741.334	73.57
741.643	73.94
741.952	71.35
742.261	71.66
742.57	71.65
742.879	72.49
743.188	73.08
743.497	72.76
743.805	72.46
744.114	72.13
744.422	68.97
744.731	68.39
745.04	66.38
745.348	67.58
745.656	65.75
745.965	67.17
746.273	64.48
746.581	65.31
746.889	67.3
747.198	68.41
747.506	68.55
747.814	69.65
748.122	68.51
748.43	64.5
748.738	65.53
749.046	66.85
749.353	67.67
749.661	70.37
749.969	69.49
750.277	66.75
750.584	64.78
750.892	64.2
751.199	63.91
751.507	63.99
751.814	62.95
752.122	65.91
752.429	63.6
752.736	63.52
753.044	59.95
753.351	62.17
753.658	60.74
753.965	63.39
754.272	62.46
754.579	61.28
754.886	61.81
755.193	61.77
755.5	59.72
755.807	60.74
756.114	61.62
756.42	59.76
756.727	58.22
757.034	56.9
757.34	55.14
757.647	57.34
757.953	56.66
758.26	58.19
758.566	59.68
758.872	60.08
759.179	60.36
759.485	59.97
759.791	58.36
760.097	59.02
760.403	58.78
760.709	60.41
761.015	60.75
761.321	61.8
761.627	61.68
761.933	60.28
762.239	59.92
762.545	57.14
762.851	56.05
763.156	58.75
763.462	58.5
763.767	57.34
764.073	55.47
764.378	54.38
764.684	54.23
764.989	55.46
765.295	56.34
765.6	59.6
765.905	58.23
766.21	57.37
766.515	53.49
766.821	48.89
767.126	52.17
767.431	54.06
767.736	56.37
768.041	55.6
768.345	56.97
768.65	53.18
768.955	49.46
769.26	46.32
769.564	47.22
769.869	50.13
770.174	52.66
770.478	58.91
770.783	54.57
771.087	52.95
771.391	55.96
771.696	66.33
772	74.73
772.304	75.35
772.608	77.18
772.913	68.38
773.217	65.07
773.521	69.2
773.825	64.9
774.129	71.86
774.433	77.32
774.736	71
775.04	67.91
775.344	66.14
775.648	64.51
775.951	63.2
776.255	62.99
776.559	62.99
776.862	65.18
777.166	73.19
777.469	69.13
777.772	67.11
778.076	60.27
778.379	60.26
778.682	51.93
778.985	44.96
779.289	36.16
779.592	35.91
779.895	35.99
780.198	35.1
780.501	37.12
780.804	40.51
781.106	41.07
781.409	33.19
781.712	34.2
782.015	25.78
782.317	30.24
782.62	34.79
782.923	29.29
783.225	32.02
783.527	35.98
783.83	27.9
784.132	31.1
784.435	30.39
784.737	20.73
785.039	22.39
785.341	20.83
785.643	19.77
785.945	12.33
786.248	21.56
786.55	34.43
786.851	35.82
787.153	27.87
787.455	30.35
787.757	27.19
788.059	21.23
788.36	20.3
788.662	21.13
788.964	36.72
789.265	25.54
789.567	40.12
789.868	40.5
790.17	28.97
790.471	34.23
790.772	21.08
791.074	11.56
791.375	23.31
791.676	30.64
791.977	18.13
792.278	27.05
792.579	28.61
792.88	33.16
793.181	26.9
793.482	37.19
793.783	29.67
794.083	31.43
794.384	27.14
794.685	26.84
794.986	21.25
795.286	15.92
795.587	22.73
795.887	19.21
796.188	17.54
796.488	11.61
796.788	16.66
797.089	11.07
797.389	8.81
797.689	15.16
797.989	-1.24
798.289	10.97
798.589	16.12
798.889	14.83
799.189	1.32
799.489	26.1
799.789	3.22
800.089	-8.89
800.389	-26.16
800.688	-25.22
800.988	-26.12
801.288	-19.39
801.587	-26.87
801.887	-33.54
802.186	-34.6
802.486	-22.66
802.785	-26.16
803.085	-30.67
803.384	-26.08
803.683	-46.96
803.982	-56.49
804.281	-61.7
804.58	-64.79
804.879	-243.04
805.178	-305.87
805.477	-136.72
805.776	-159.93
806.075	-236.43
806.374	-165.48
806.673	-164.66
806.971	-343.63
807.27	-2128.89
807.569	-3781.61
807.867	-1931.09
808.166	655.85
808.464	515.15
808.763	240.54
809.061	191.16
809.359	184.31
809.658	171.34
809.956	146.4
810.254	132.86
810.552	135.06
810.85	137.48
811.148	147.04
811.446	157.17
811.744	209.67
812.042	177.39
812.34	157.36
812.638	188.54
812.935	169.82
813.233	163.69
813.531	213.08
813.828	182.96
814.126	180.99
814.423	184.22
814.721	183.22
815.018	110.39
815.316	184.93
815.613	217.45
815.91	258.62
816.207	217.4
816.504	182.83
816.802	321.37
817.099	240.99
817.396	388
817.693	488.86
817.99	778.22
818.286	584.67
818.583	-698.46
818.88	607.13
819.177	311.09
819.473	230.38
819.77	293.25
820.067	530.35
820.363	2095.89
820.66	-757.38
820.956	274.12
821.252	-1871.79
821.549	369.34
821.845	973.55
822.141	-695.81
822.437	-42.88
822.734	161.41
823.03	-249.7
823.326	-10.28
823.622	117.12
823.918	1364.91
824.213	282.56
824.509	321.21
824.805	244.85
825.101	208.79
825.397	136.41
825.692	104.25
825.988	80.4
826.283	150.88
826.579	320.58
826.874	-2324.27
827.17	-4948.72
827.465	657.41
827.76	354.87
828.056	396.97
828.351	1565.46
828.646	438.35
828.941	621.11
829.236	587.16
829.531	369.7
829.826	281.57
830.121	316.27
830.416	415.87
830.711	311
831.006	302.81
831.3	348.64
831.595	243.75
831.89	198.04
832.184	153.7
832.479	147.79
832.773	157.84
833.068	167.26
833.362	189
833.656	160.06
833.951	131.6
834.245	119.9
834.539	143.39
834.833	136.77
835.127	121.75
835.421	100.96
835.715	87.27
836.009	101.33
836.303	87.91
836.597	76.16
836.891	86.96
837.185	94.51
837.478	84.4
837.772	86.79
838.066	105.28
838.359	114.51
838.653	84.94
838.946	88.35
839.24	105.05
839.533	131.89
839.826	170.26
840.119	215.57
840.413	209.93
840.706	239.64
840.999	205.93
841.292	265.51
841.585	244.07
841.878	185.35
842.171	224.13
842.464	343.26
842.757	384.15
843.049	411.54
843.342	325.94
843.635	337.57
843.927	445.75
844.22	484.43
844.513	568.09
844.805	1121.33
845.098	1523.29
845.39	1647.53
845.682	1540.59
845.975	2624.15
846.267	935.44
846.559	705.01
846.851	572.58
847.143	422.85
847.435	496.89
847.727	492.99
848.019	704.23
848.311	1529.71
848.603	2675.54
848.895	-1759.63
849.186	-452.42
849.478	-21817.39
849.77	1384.19
850.061	1817.17
850.353	-3248.74
850.645	-466.44
850.936	-425.63
851.227	-37857.14
851.519	-738.91
851.81	689.16
852.101	386.47
852.393	1250.69
852.684	-1246.36
852.975	-350.33
853.266	-184.94
853.557	-100.27
853.848	-40.78
854.139	16.53
854.43	-13.21
854.72	-39.81
855.011	-56.04
855.302	-90.46
855.593	-72.41
855.883	-109.26
856.174	-35.29
856.464	-285.25
856.755	688.65
857.045	541.64
857.336	503.6
857.626	-1942.53
857.916	1674.38
858.206	-9017.39
858.497	-282.78
858.787	-440.25
859.077	-628.13
859.367	-293.15
859.657	-462.98
859.947	-2200
860.237	2413.14
860.527	492.33
860.816	373.68
861.106	181.95
861.396	229.93
861.685	310.5
861.975	375.05
862.265	491.44
862.554	336.38
862.844	-1281.97
863.133	-1031.94
863.422	-1519.84
863.712	-617.61
864.001	-251.39
864.29	-248.34
864.579	-273.83
864.868	-379.41
865.157	-360.62
865.446	-525.12
865.735	-747.87
866.024	-549.83
866.313	-306.36
866.602	-514.29
866.891	-402.88
867.179	-235.17
867.468	-238.9
