Data from T2_Reflection__123__20-17-18-112.txt Node

Date: Fri Jun 04 20:17:18 CEST 2021
User: mabdelazizm
Spectrometer: FLMS18565
Trigger mode: 0
Integration Time (sec): 2.000000E0
Scans to average: 1
Electric dark correction enabled: true
Nonlinearity correction enabled: false
Boxcar width: 12
XAxis mode: Wavelengths
Number of Pixels in Spectrum: 2048
>>>>>Begin Spectral Data<<<<<
179.071	-11.17
179.452	18.34
179.833	-45.5
180.214	-36.54
180.595	-81.23
180.977	-160.08
181.358	-133.86
181.739	-132.4
182.12	-92.85
182.501	-76.22
182.882	-112.37
183.262	-471.43
183.643	-90.75
184.024	-41.39
184.405	-17.44
184.786	17.55
185.166	4.9
185.547	13.44
185.927	18.88
186.308	10.36
186.689	19.58
187.069	23.79
187.449	23.24
187.83	22.47
188.21	15.47
188.59	21.64
188.971	21.82
189.351	26.14
189.731	24.64
190.111	30.69
190.491	30.22
190.871	28.99
191.251	33.98
191.631	35.25
192.011	32.81
192.391	34.3
192.771	35.53
193.151	35.01
193.531	35.52
193.91	37.07
194.29	37.63
194.67	39.28
195.049	34.72
195.429	33.31
195.808	33.79
196.188	29.01
196.567	26.91
196.946	25.53
197.326	24.47
197.705	27.9
198.084	26.81
198.464	23.79
198.843	22.94
199.222	23.64
199.601	21.79
199.98	18.93
200.359	19.42
200.738	19.22
201.117	16.52
201.496	12.76
201.875	11.52
202.254	10.31
202.632	9.19
203.011	8
203.39	7.26
203.768	5.49
204.147	5.54
204.525	5.22
204.904	3.24
205.282	4.85
205.661	2.96
206.039	4.49
206.418	3.89
206.796	5.65
207.174	4.64
207.552	4.14
207.931	4.26
208.309	3.87
208.687	3.56
209.065	4.08
209.443	4.96
209.821	1.4
210.199	-0.49
210.577	1.96
210.954	6.82
211.332	6.34
211.71	5.29
212.088	6.49
212.465	7.22
212.843	8.69
213.221	11.38
213.598	12.26
213.976	12.2
214.353	13.36
214.731	13.56
215.108	16.13
215.485	14.16
215.863	13.68
216.24	10.69
216.617	10.15
216.994	9.92
217.371	10.43
217.749	9.97
218.126	9.11
218.503	8.77
218.88	8.29
219.256	8.78
219.633	8.4
220.01	7.07
220.387	7.2
220.764	7.24
221.14	8.31
221.517	7.11
221.894	5.65
222.27	4.76
222.647	3.42
223.023	2.9
223.4	2.63
223.776	2.46
224.153	1.62
224.529	0.92
224.905	1.44
225.282	1.21
225.658	1.62
226.034	1.45
226.41	1.48
226.786	0.76
227.162	0.8
227.538	0.74
227.914	0.63
228.29	0.82
228.666	0.85
229.042	0.9
229.418	1.22
229.793	0.6
230.169	0.59
230.545	0.11
230.92	0.2
231.296	0.51
231.672	0.53
232.047	0.47
232.422	0.44
232.798	0.61
233.173	0.64
233.549	0.71
233.924	0.91
234.299	0.84
234.674	0.89
235.05	0.73
235.425	0.67
235.8	0.68
236.175	0.83
236.55	0.9
236.925	0.83
237.3	0.89
237.675	0.89
238.049	0.82
238.424	0.72
238.799	0.65
239.174	0.73
239.548	0.7
239.923	0.87
240.297	0.88
240.672	0.9
241.046	0.96
241.421	0.95
241.795	0.92
242.17	0.83
242.544	0.78
242.918	0.79
243.293	0.7
243.667	0.64
244.041	0.67
244.415	0.71
244.789	0.78
245.163	0.79
245.537	0.71
245.911	0.71
246.285	0.8
246.659	0.82
247.033	0.84
247.406	0.9
247.78	0.96
248.154	0.87
248.528	0.95
248.901	0.96
249.275	0.87
249.648	0.93
250.022	0.88
250.395	0.81
250.769	0.79
251.142	0.81
251.515	0.83
251.888	0.85
252.262	0.87
252.635	0.91
253.008	0.92
253.381	0.91
253.754	0.92
254.127	0.95
254.5	0.93
254.873	0.94
255.246	0.88
255.619	0.87
255.992	0.84
256.364	0.79
256.737	0.77
257.11	0.77
257.483	0.83
257.855	0.75
258.228	0.77
258.6	0.82
258.973	0.83
259.345	0.87
259.718	0.88
260.09	0.86
260.462	0.81
260.834	0.82
261.207	0.81
261.579	0.76
261.951	0.72
262.323	0.67
262.695	0.66
263.067	0.67
263.439	0.67
263.811	0.7
264.183	0.71
264.555	0.75
264.927	0.73
265.298	0.69
265.67	0.69
266.042	0.66
266.413	0.65
266.785	0.6
267.156	0.63
267.528	0.6
267.899	0.55
268.271	0.53
268.642	0.45
269.013	0.51
269.385	0.54
269.756	0.59
270.127	0.55
270.498	0.56
270.87	0.61
271.241	0.61
271.612	0.64
271.983	0.63
272.354	0.55
272.724	0.52
273.095	0.53
273.466	0.53
273.837	0.54
274.208	0.57
274.578	0.57
274.949	0.61
275.32	0.61
275.69	0.58
276.061	0.61
276.431	0.6
276.802	0.57
277.172	0.58
277.542	0.52
277.913	0.58
278.283	0.54
278.653	0.54
279.023	0.51
279.394	0.6
279.764	0.59
280.134	0.58
280.504	0.6
280.874	0.62
281.244	0.6
281.614	0.62
281.983	0.59
282.353	0.62
282.723	0.61
283.093	0.58
283.462	0.55
283.832	0.55
284.202	0.53
284.571	0.52
284.941	0.53
285.31	0.58
285.68	0.6
286.049	0.58
286.418	0.57
286.788	0.67
287.157	0.68
287.526	0.7
287.895	0.7
288.264	0.7
288.633	0.63
289.002	0.57
289.371	0.63
289.74	0.61
290.109	0.6
290.478	0.63
290.847	0.7
291.216	0.67
291.585	0.59
291.953	0.55
292.322	0.57
292.691	0.56
293.059	0.52
293.428	0.5
293.796	0.54
294.165	0.54
294.533	0.49
294.901	0.44
295.27	0.55
295.638	0.54
296.006	0.45
296.374	0.39
296.743	0.38
297.111	0.37
297.479	0.37
297.847	0.41
298.215	0.48
298.583	0.39
298.95	0.4
299.318	0.39
299.686	0.36
300.054	0.32
300.422	0.35
300.789	0.35
301.157	0.37
301.525	0.37
301.892	0.4
302.26	0.43
302.627	0.44
302.994	0.4
303.362	0.42
303.729	0.4
304.097	0.39
304.464	0.28
304.831	0.31
305.198	0.28
305.565	0.29
305.932	0.27
306.299	0.21
306.666	0.18
307.033	0.13
307.4	0.13
307.767	0.12
308.134	0.07
308.501	0.07
308.867	0.09
309.234	0.1
309.601	0.15
309.967	0.12
310.334	0.14
310.701	0.09
311.067	0.02
311.433	0.06
311.8	0.02
312.166	0.06
312.533	0.02
312.899	0.03
313.265	0.06
313.631	0.12
313.997	0.11
314.363	0.15
314.729	0.17
315.096	0.17
315.461	0.19
315.827	0.21
316.193	0.21
316.559	0.22
316.925	0.22
317.291	0.27
317.656	0.28
318.022	0.27
318.388	0.28
318.753	0.23
319.119	0.24
319.484	0.26
319.85	0.25
320.215	0.29
320.581	0.27
320.946	0.3
321.311	0.27
321.676	0.26
322.042	0.25
322.407	0.17
322.772	0.19
323.137	0.17
323.502	0.19
323.867	0.21
324.232	0.19
324.597	0.17
324.962	0.15
325.327	0.2
325.691	0.22
326.056	0.25
326.421	0.22
326.785	0.22
327.15	0.19
327.514	0.16
327.879	0.19
328.243	0.22
328.608	0.21
328.972	0.27
329.337	0.23
329.701	0.24
330.065	0.24
330.429	0.29
330.794	0.34
331.158	0.39
331.522	0.43
331.886	0.36
332.25	0.32
332.614	0.29
332.978	0.25
333.342	0.3
333.705	0.31
334.069	0.33
334.433	0.27
334.797	0.17
335.16	0.11
335.524	0.12
335.887	0.11
336.251	0.09
336.614	0.07
336.978	0.05
337.341	0.04
337.705	0
338.068	0.03
338.431	0.04
338.794	-0
339.158	-0.01
339.521	-0.06
339.884	-0.11
340.247	-0.12
340.61	-0.1
340.973	-0.03
341.336	0.04
341.699	-0.01
342.062	-0.03
342.424	-0.08
342.787	-0.12
343.15	-0.15
343.512	-0.12
343.875	-0.07
344.238	0.02
344.6	-0
344.963	-0.02
345.325	-0.02
345.688	-0.03
346.05	-0.08
346.412	-0.03
346.775	-0.05
347.137	-0.11
347.499	-0.1
347.861	-0.05
348.223	-0.07
348.585	-0.06
348.947	-0.05
349.309	-0.09
349.671	-0.05
350.033	-0.11
350.395	-0.12
350.757	-0.12
351.118	-0.17
351.48	-0.14
351.842	-0.07
352.203	-0.05
352.565	-0.05
352.927	-0.04
353.288	-0.06
353.65	-0.09
354.011	-0.1
354.372	-0.02
354.734	-0
355.095	0.04
355.456	-0.04
355.817	-0.01
356.179	-0.03
356.54	0
356.901	-0.03
357.262	0.01
357.623	-0.05
357.984	0.01
358.345	0.06
358.705	0.04
359.066	0.05
359.427	0.01
359.788	0.04
360.148	0.08
360.509	0.13
360.87	0.13
361.23	0.11
361.591	0.16
361.951	0.13
362.312	0.09
362.672	0.13
363.032	0.13
363.393	0.1
363.753	0.06
364.113	0.03
364.473	0.06
364.833	0.06
365.193	0.06
365.553	0.07
365.913	0.09
366.273	0.05
366.633	0.09
366.993	-0.01
367.353	-0.09
367.713	-0.14
368.072	-0.17
368.432	-0.1
368.792	-0.13
369.151	-0.11
369.511	-0.14
369.87	-0.16
370.23	-0.09
370.589	-0.1
370.949	-0.1
371.308	-0.08
371.667	-0.1
372.027	-0.06
372.386	-0.07
372.745	0.04
373.104	0.08
373.463	0.09
373.822	0.08
374.181	0.06
374.54	-0.01
374.899	0.03
375.258	0.05
375.617	0.04
375.975	0.04
376.334	0.06
376.693	0.23
377.052	0.29
377.41	0.28
377.769	0.35
378.127	0.34
378.486	0.28
378.844	0.26
379.202	0.2
379.561	0.18
379.919	0.19
380.277	0.2
380.636	0.22
380.994	0.2
381.352	0.16
381.71	0.09
382.068	0.09
382.426	0.05
382.784	0.09
383.142	0.15
383.5	0.18
383.857	0.12
384.215	0.11
384.573	0.05
384.931	0.12
385.288	0.02
385.646	-0.15
386.003	-0.19
386.361	-0.26
386.718	-0.25
387.076	-0.2
387.433	-0.2
387.791	-0.2
388.148	-0.24
388.505	-0.31
388.862	-0.28
389.22	-0.27
389.577	-0.27
389.934	-0.25
390.291	-0.23
390.648	-0.22
391.005	-0.27
391.362	-0.23
391.718	-0.24
392.075	-0.33
392.432	-0.32
392.789	-0.36
393.145	-0.4
393.502	-0.35
393.859	-0.34
394.215	-0.24
394.572	-0.21
394.928	-0.2
395.285	-0.19
395.641	-0.24
395.997	-0.28
396.354	-0.23
396.71	-0.18
397.066	-0.17
397.422	-0.06
397.778	-0.12
398.134	-0.12
398.491	-0.14
398.846	-0.18
399.202	-0.16
399.558	-0.23
399.914	-0.16
400.27	-0.24
400.626	-0.29
400.981	-0.29
401.337	-0.27
401.693	-0.21
402.048	-0.22
402.404	-0.18
402.759	-0.18
403.115	-0.19
403.47	-0.18
403.826	-0.2
404.181	-0.18
404.536	-0.22
404.892	-0.27
405.247	-0.32
405.602	-0.37
405.957	-0.33
406.312	-0.39
406.667	-0.31
407.022	-0.32
407.377	-0.25
407.732	-0.25
408.087	-0.29
408.442	-0.25
408.796	-0.32
409.151	-0.26
409.506	-0.16
409.86	-0.16
410.215	-0.17
410.57	-0.18
410.924	-0.11
411.279	-0.13
411.633	-0.2
411.987	-0.22
412.342	-0.19
412.696	-0.17
413.05	-0.17
413.404	-0.06
413.758	0.06
414.113	0.12
414.467	0.18
414.821	0.13
415.175	0.17
415.529	0.13
415.882	0.13
416.236	0.08
416.59	0.07
416.944	0.08
417.298	0.17
417.651	0.21
418.005	0.22
418.358	0.2
418.712	0.23
419.065	0.23
419.419	0.15
419.772	0.11
420.126	0.14
420.479	0.24
420.832	0.21
421.185	0.29
421.539	0.26
421.892	0.27
422.245	0.2
422.598	0.19
422.951	0.24
423.304	0.19
423.657	0.19
424.01	0.18
424.363	0.15
424.715	0.17
425.068	0.1
425.421	0.17
425.773	0.13
426.126	0.17
426.479	0.14
426.831	0.12
427.184	0.06
427.536	0.15
427.889	0.1
428.241	0.22
428.593	0.29
428.945	0.34
429.298	0.28
429.65	0.35
430.002	0.24
430.354	0.3
430.706	0.3
431.058	0.32
431.41	0.23
431.762	0.16
432.114	0.17
432.466	0.19
432.817	0.16
433.169	0.24
433.521	0.21
433.872	0.28
434.224	0.2
434.576	0.26
434.927	0.23
435.279	0.25
435.63	0.29
435.981	0.44
436.333	0.43
436.684	0.57
437.035	0.54
437.387	0.52
437.738	0.48
438.089	0.52
438.44	0.5
438.791	0.44
439.142	0.44
439.493	0.49
439.844	0.54
440.195	0.6
440.545	0.61
440.896	0.66
441.247	0.67
441.598	0.69
441.948	0.69
442.299	0.7
442.649	0.68
443	0.7
443.35	0.71
443.701	0.65
444.051	0.58
444.401	0.57
444.752	0.38
445.102	0.3
445.452	0.17
445.802	0.13
446.152	0.07
446.502	0.06
446.852	-0.02
447.202	0.01
447.552	0.07
447.902	0.07
448.252	-0.02
448.602	0.57
448.952	0.58
449.301	0.56
449.651	0.56
450.001	0.62
450.35	0.58
450.7	0.61
451.049	0.64
451.399	0.74
451.748	0.82
452.097	0.98
452.447	0.94
452.796	1.08
453.145	1.18
453.494	1.28
453.843	1.34
454.193	1.42
454.542	1.45
454.891	1.52
455.239	1.44
455.588	1.49
455.937	1.42
456.286	1.46
456.635	1.47
456.984	1.52
457.332	0.86
457.681	0.87
458.03	0.99
458.378	0.9
458.727	0.84
459.075	0.95
459.423	0.99
459.772	0.97
460.12	0.88
460.468	0.88
460.817	0.77
461.165	0.87
461.513	0.87
461.861	0.84
462.209	0.89
462.557	1.01
462.905	0.95
463.253	0.99
463.601	1.06
463.949	1.2
464.297	1.2
464.644	1.41
464.992	1.35
465.34	1.35
465.687	1.45
466.035	1.31
466.383	1.34
466.73	1.23
467.078	1.24
467.425	1.32
467.772	1.3
468.12	1.24
468.467	1.26
468.814	1.36
469.161	1.39
469.508	1.36
469.856	1.3
470.203	1.24
470.55	1.13
470.897	1.12
471.243	0.95
471.59	1.03
471.937	0.95
472.284	0.88
472.631	0.74
472.977	0.77
473.324	0.72
473.671	0.64
474.017	0.64
474.364	0.47
474.71	0.59
475.057	0.53
475.403	0.55
475.749	0.59
476.096	0.56
476.442	0.57
476.788	0.58
477.134	0.57
477.48	0.56
477.826	0.57
478.172	0.57
478.518	0.61
478.864	0.63
479.21	0.71
479.556	0.69
479.902	0.79
480.248	0.8
480.593	0.81
480.939	0.77
481.285	0.79
481.63	0.82
481.976	0.82
482.321	0.95
482.667	1
483.012	1.05
483.357	1.15
483.703	1.19
484.048	1.34
484.393	1.44
484.738	1.51
485.084	1.55
485.429	1.6
485.774	1.69
486.119	1.75
486.464	1.85
486.808	2.01
487.153	2.16
487.498	2.29
487.843	2.4
488.188	2.64
488.532	2.86
488.877	3.08
489.222	3.43
489.566	3.75
489.911	4.22
490.255	4.58
490.6	4.93
490.944	5.24
491.288	5.63
491.633	6.07
491.977	6.41
492.321	6.98
492.665	7.35
493.009	7.83
493.353	8.37
493.697	8.96
494.041	9.54
494.385	10.06
494.729	10.67
495.073	11.29
495.417	11.84
495.76	12.45
496.104	13.15
496.448	13.88
496.791	14.6
497.135	15.23
497.479	15.98
497.822	16.68
498.165	17.43
498.509	18.15
498.852	18.81
499.196	19.62
499.539	20.4
499.882	21.17
500.225	21.98
500.568	22.8
500.911	23.48
501.254	24.26
501.597	24.93
501.94	25.66
502.283	26.27
502.626	26.96
502.969	27.76
503.312	28.4
503.654	29.09
503.997	29.77
504.34	30.47
504.682	31.08
505.025	31.7
505.367	32.37
505.71	32.9
506.052	33.47
506.395	34.08
506.737	34.76
507.079	35.4
507.421	36.13
507.764	36.65
508.106	37.24
508.448	37.73
508.79	38.3
509.132	38.85
509.474	39.36
509.816	39.79
510.158	40.37
510.499	40.84
510.841	41.37
511.183	41.84
511.525	42.2
511.866	42.73
512.208	43.09
512.549	43.6
512.891	44.01
513.232	44.55
513.574	45.1
513.915	45.48
514.256	46.08
514.598	46.61
514.939	46.99
515.28	47.34
515.621	47.65
515.962	47.93
516.303	48.43
516.644	48.72
516.985	49.22
517.326	49.54
517.667	49.74
518.008	50.1
518.349	50.65
518.69	51.07
519.03	51.43
519.371	51.82
519.712	52.14
520.052	52.49
520.393	52.77
520.733	53.2
521.074	53.49
521.414	53.94
521.754	54.19
522.095	54.44
522.435	54.76
522.775	54.96
523.115	55.22
523.455	55.49
523.795	55.66
524.135	55.89
524.475	56.08
524.815	56.15
525.155	56.5
525.495	56.6
525.835	56.9
526.175	57.23
526.514	57.42
526.854	57.39
527.194	57.48
527.533	57.58
527.873	57.66
528.212	57.89
528.552	58.16
528.891	58.28
529.23	58.39
529.57	58.47
529.909	58.69
530.248	58.79
530.587	58.95
530.927	59.02
531.266	59.18
531.605	59.3
531.944	59.38
532.283	59.51
532.621	59.49
532.96	59.73
533.299	60.02
533.638	60.25
533.977	60.35
534.315	60.36
534.654	60.4
534.992	60.41
535.331	60.52
535.67	60.56
536.008	60.65
536.346	60.69
536.685	60.58
537.023	60.58
537.361	60.78
537.7	60.75
538.038	60.8
538.376	60.67
538.714	60.86
539.052	60.81
539.39	60.82
539.728	60.75
540.066	60.7
540.404	60.85
540.741	60.85
541.079	61.13
541.417	61.15
541.755	60.98
542.092	60.77
542.43	60.84
542.767	60.92
543.105	60.86
543.442	61.06
543.78	61.06
544.117	61.08
544.454	61.16
544.792	61.4
545.129	61.55
545.466	61.57
545.803	61.6
546.14	61.68
546.477	61.77
546.814	61.91
547.151	61.8
547.488	61.91
547.825	61.83
548.162	61.95
548.499	62.09
548.835	62.14
549.172	62.25
549.509	62.25
549.845	62.42
550.182	62.62
550.518	62.78
550.855	62.73
551.191	62.71
551.528	62.86
551.864	62.85
552.2	63.1
552.537	63.17
552.873	63.21
553.209	63.31
553.545	63.33
553.881	63.39
554.217	63.3
554.553	63.36
554.889	63.47
555.225	63.37
555.561	63.47
555.896	63.61
556.232	63.9
556.568	64.07
556.903	63.92
557.239	63.86
557.575	64.04
557.91	64.02
558.245	63.99
558.581	63.99
558.916	63.88
559.252	64.22
559.587	64.3
559.922	64.38
560.257	64.38
560.592	64.28
560.928	64.34
561.263	64.41
561.598	64.36
561.933	64.56
562.267	64.62
562.602	64.86
562.937	65.2
563.272	65.35
563.607	65.48
563.941	65.63
564.276	65.54
564.611	65.62
564.945	65.68
565.28	65.99
565.614	65.86
565.949	65.88
566.283	65.97
566.617	66.06
566.951	66.15
567.286	66.49
567.62	66.31
567.954	66.31
568.288	66.34
568.622	66.27
568.956	66.3
569.29	66.5
569.624	66.41
569.958	66.39
570.292	66.46
570.626	66.58
570.959	66.6
571.293	66.53
571.627	66.49
571.96	66.43
572.294	66.42
572.627	66.36
572.961	66.48
573.294	66.42
573.627	66.41
573.961	66.51
574.294	66.47
574.627	66.71
574.961	66.74
575.294	66.74
575.627	66.8
575.96	66.85
576.293	66.72
576.626	66.64
576.959	66.79
577.292	66.82
577.624	66.77
577.957	66.83
578.29	66.89
578.623	66.87
578.955	66.92
579.288	66.89
579.62	66.79
579.953	66.7
580.285	66.72
580.618	66.75
580.95	66.85
581.282	66.79
581.615	66.86
581.947	66.76
582.279	66.93
582.611	66.93
582.943	66.69
583.275	66.63
583.607	66.7
583.939	66.5
584.271	66.46
584.603	66.64
584.935	66.74
585.267	66.64
585.598	66.74
585.93	66.79
586.262	66.93
586.593	66.92
586.925	66.84
587.256	66.69
587.588	66.64
587.919	66.75
588.25	66.8
588.582	66.86
588.913	67.05
589.244	67.15
589.575	67.13
589.907	67.1
590.238	67.13
590.569	67.17
590.9	67.32
591.231	67.36
591.562	67.25
591.892	67.23
592.223	67.17
592.554	67.34
592.885	67.29
593.215	67.27
593.546	67.24
593.877	67.07
594.207	66.96
594.538	66.9
594.868	66.9
595.198	66.85
595.529	66.81
595.859	66.77
596.189	66.93
596.52	67.09
596.85	67.14
597.18	66.9
597.51	66.85
597.84	66.84
598.17	66.89
598.5	66.93
598.83	66.78
599.16	66.92
599.489	67.08
599.819	67.31
600.149	67.17
600.479	67.13
600.808	66.97
601.138	67.08
601.467	67.01
601.797	67.1
602.126	67.08
602.456	67.16
602.785	67.09
603.114	67
603.443	67.23
603.773	67.21
604.102	67.33
604.431	67.25
604.76	67.1
605.089	67
605.418	67.07
605.747	67.04
606.076	66.99
606.405	66.93
606.733	66.96
607.062	66.93
607.391	66.56
607.72	66.39
608.048	66.17
608.377	66.13
608.705	66.39
609.034	66.37
609.362	66.29
609.69	66.47
610.019	66.51
610.347	66.74
610.675	66.64
611.004	66.85
611.332	66.91
611.66	66.79
611.988	66.85
612.316	66.84
612.644	66.67
612.972	66.72
613.3	66.84
613.627	66.68
613.955	66.67
614.283	66.46
614.611	66.39
614.938	66.52
615.266	66.65
615.593	66.71
615.921	66.54
616.248	66.81
616.576	66.8
616.903	66.82
617.23	66.97
617.558	67.02
617.885	67
618.212	66.87
618.539	66.6
618.866	66.41
619.193	66.17
619.52	66.41
619.847	66.31
620.174	66.15
620.501	66.14
620.828	66.18
621.155	66.37
621.481	66.3
621.808	66.33
622.135	66.55
622.461	66.79
622.788	66.92
623.114	66.49
623.441	65.98
623.767	66.01
624.093	66.26
624.42	65.81
624.746	66.16
625.072	65.93
625.398	66.29
625.725	66.15
626.051	66.09
626.377	66.3
626.703	66.31
627.029	66.56
627.354	66.36
627.68	65.89
628.006	66.27
628.332	66.45
628.658	66.71
628.983	66.45
629.309	66.41
629.634	66.32
629.96	66.26
630.285	65.85
630.611	66.03
630.936	66.02
631.262	66.94
631.587	67.54
631.912	68.04
632.237	67.66
632.562	68.41
632.887	68.43
633.213	68.64
633.538	68.5
633.863	68.4
634.187	68.43
634.512	68.24
634.837	68.41
635.162	68.42
635.487	68.34
635.811	68.71
636.136	68.64
636.461	68.49
636.785	68.17
637.11	68.86
637.434	69.08
637.758	69.37
638.083	69.47
638.407	69.85
638.731	69.73
639.056	69.63
639.38	69.34
639.704	70.04
640.028	69.91
640.352	70.64
640.676	70.52
641	70.16
641.324	69.85
641.648	69.4
641.972	69.91
642.295	69.67
642.619	69.8
642.943	69.51
643.266	69.5
643.59	69.85
643.913	69.74
644.237	69.8
644.56	69.91
644.884	70.48
645.207	70.06
645.53	70.05
645.854	69.92
646.177	70.36
646.5	70.26
646.823	70.29
647.146	70.19
647.469	69.63
647.792	68.55
648.115	68.58
648.438	68.59
648.761	70.16
649.084	69.83
649.406	69.33
649.729	68.15
650.052	67.67
650.374	67.35
650.697	67.18
651.019	67.2
651.342	67.17
651.664	67.23
651.987	67.22
652.309	67.09
652.631	67.2
652.953	67.07
653.276	67.09
653.598	67.03
653.92	66.98
654.242	67.08
654.564	67.16
654.886	67.06
655.208	67.06
655.53	67.09
655.851	67.27
656.173	67.25
656.495	67.2
656.816	66.26
657.138	66.01
657.46	65.58
657.781	66.21
658.103	66.6
658.424	67.05
658.746	67.36
659.067	67.8
659.388	67.7
659.709	67.45
660.031	67.25
660.352	66.95
660.673	65.87
660.994	65.81
661.315	66.27
661.636	66.38
661.957	66.27
662.278	65.51
662.599	64.31
662.919	64.23
663.24	64.91
663.561	64.93
663.881	64.58
664.202	63.8
664.523	63.25
664.843	63.56
665.164	63.02
665.484	63.35
665.804	63.22
666.125	63.16
666.445	64.15
666.765	64.53
667.085	63.76
667.405	63.84
667.726	64.13
668.046	63.95
668.366	64
668.686	65.28
669.005	64.24
669.325	63.88
669.645	62.88
669.965	62.77
670.285	62.8
670.604	63.56
670.924	63.52
671.243	63.73
671.563	63.77
671.882	63.44
672.202	63.23
672.521	63.64
672.841	62.98
673.16	62.21
673.479	61.69
673.798	61.85
674.117	62.47
674.437	62.36
674.756	62.1
675.075	63.2
675.394	62.59
675.713	62.78
676.031	63.43
676.35	63.81
676.669	63.31
676.988	64.72
677.306	64.43
677.625	65.05
677.944	65.29
678.262	65.33
678.581	65.12
678.899	65.28
679.218	64.82
679.536	64.4
679.854	64.61
680.172	64.68
680.491	64.31
680.809	64.82
681.127	65.41
681.445	66.03
681.763	65.98
682.081	65.43
682.399	64.35
682.717	64.11
683.035	63.7
683.352	64.48
683.67	64.38
683.988	64.4
684.306	64.59
684.623	65.17
684.941	65.15
685.258	65.34
685.576	66.17
685.893	66.22
686.211	66.42
686.528	66.52
686.845	67.45
687.162	67.1
687.48	67.36
687.797	67.89
688.114	68.97
688.431	69.32
688.748	68.95
689.065	69.37
689.382	69.11
689.699	70.02
690.015	70.21
690.332	71.35
690.649	71.82
690.966	72
691.282	71.94
691.599	71.24
691.915	70.6
692.232	70.65
692.548	71.06
692.865	70.38
693.181	70.63
693.497	69.46
693.813	69.77
694.13	70.2
694.446	70.04
694.762	69.12
695.078	68.91
695.394	69.76
695.71	69.06
696.026	68.83
696.342	69.62
696.658	71.18
696.973	72.16
697.289	72.51
697.605	71.65
697.92	71.74
698.236	71.86
698.551	72.25
698.867	72.31
699.182	73.12
699.498	74.88
699.813	76.78
700.128	77.11
700.444	75.25
700.759	76.34
701.074	76.03
701.389	76.74
701.704	75.88
702.019	75.37
702.334	75.88
702.649	76.25
702.964	76.75
703.279	76.76
703.594	77.67
703.908	77.43
704.223	76.53
704.538	75.12
704.852	74.04
705.167	73.08
705.481	73.88
705.796	74.05
706.11	73
706.425	72.44
706.739	72.55
707.053	72.04
707.368	71.6
707.682	71.32
707.996	71.18
708.31	71.43
708.624	71.16
708.938	71.07
709.252	71.48
709.566	72.17
709.88	71.33
710.193	70.29
710.507	71.54
710.821	72.26
711.135	72.19
711.448	71.92
711.762	72.25
712.075	73.16
712.389	74.69
712.702	74.78
713.015	74.38
713.329	73.59
713.642	73.7
713.955	74.38
714.269	74.69
714.582	74.51
714.895	74.17
715.208	74.99
715.521	75.58
715.834	76.09
716.147	76.29
716.459	74.33
716.772	74.69
717.085	73.88
717.398	73.39
717.71	73.2
718.023	72.38
718.336	71.69
718.648	69.84
718.961	69.27
719.273	68.67
719.585	68.24
719.898	68.33
720.21	66.73
720.522	66.07
720.834	66.88
721.147	68.14
721.459	67.35
721.771	69.06
722.083	69.94
722.395	70.69
722.707	70.63
723.019	69.15
723.33	66.59
723.642	66.27
723.954	66.8
724.265	69.42
724.577	69.03
724.889	70.16
725.2	71.13
725.512	72.35
725.823	73.91
726.135	73.71
726.446	74.38
726.757	75.07
727.068	75.85
727.38	75.61
727.691	74.62
728.002	74.76
728.313	75.04
728.624	75.14
728.935	74.22
729.246	74.51
729.557	73.41
729.867	73.05
730.178	72.23
730.489	73.54
730.8	74.97
731.11	75.85
731.421	75.13
731.731	74.03
732.042	73.36
732.352	72.84
732.663	72.51
732.973	71.89
733.283	71.8
733.594	72.06
733.904	72.07
734.214	72.64
734.524	73.53
734.834	73.87
735.144	73.53
735.454	74.43
735.764	74.96
736.074	74.83
736.384	75.15
736.694	75.34
737.003	76.11
737.313	76.91
737.623	76.55
737.932	77.39
738.242	76.8
738.551	75.44
738.861	75.39
739.17	75.69
739.479	77.9
739.789	78.26
740.098	79.48
740.407	77.84
740.716	79.83
741.025	81.29
741.334	82
741.643	83.09
741.952	83.09
742.261	79.76
742.57	80.19
742.879	81.28
743.188	78.99
743.497	79.46
743.805	81.35
744.114	82.43
744.422	81.54
744.731	81.08
745.04	80.96
745.348	83.15
745.656	82.39
745.965	83.36
746.273	81.85
746.581	82.21
746.889	80.52
747.198	78.29
747.506	78.82
747.814	78.1
748.122	79.28
748.43	77.64
748.738	76.74
749.046	77.41
749.353	76.37
749.661	77.63
749.969	79.29
750.277	76.87
750.584	76.96
750.892	78.17
751.199	77.67
751.507	76.78
751.814	75.71
752.122	77.46
752.429	77.18
752.736	77.6
753.044	74.76
753.351	75.48
753.658	73.96
753.965	74.35
754.272	74.73
754.579	76.36
754.886	76.91
755.193	76.22
755.5	74.5
755.807	75.73
756.114	74.85
756.42	74.64
756.727	72.14
757.034	73.67
757.34	75.4
757.647	73.77
757.953	72.89
758.26	71.15
758.566	71.2
758.872	69.81
759.179	72.66
759.485	72.22
759.791	71.26
760.097	70.08
760.403	67.65
760.709	69.35
761.015	68.52
761.321	68.82
761.627	70.49
761.933	68.84
762.239	68.51
762.545	68.5
762.851	65.93
763.156	68.31
763.462	71.26
763.767	71.39
764.073	71.06
764.378	72.87
764.684	71.37
764.989	68.11
765.295	71.72
765.6	73.78
765.905	77.61
766.21	76.55
766.515	76.98
766.821	72.35
767.126	73.17
767.431	76.92
767.736	80.97
768.041	81.59
768.345	79.59
768.65	79.62
768.955	77.71
769.26	72.25
769.564	72.32
769.869	71.48
770.174	74.43
770.478	86.36
770.783	86.78
771.087	79.74
771.391	86.96
771.696	95.02
772	105.12
772.304	101.88
772.608	103.35
772.913	113.1
773.217	114.68
773.521	120.95
773.825	120.96
774.129	118.46
774.433	117.52
774.736	113.68
775.04	114.14
775.344	111.66
775.648	110.93
775.951	107.83
776.255	113.36
776.559	116.9
776.862	124.3
777.166	131.9
777.469	138.53
777.772	135.41
778.076	127.52
778.379	127.96
778.682	123.47
778.985	122.32
779.289	114.6
779.592	109.83
779.895	111.49
780.198	116.73
780.501	104.7
780.804	104.58
781.106	100.32
781.409	95.46
781.712	97.47
782.015	101.61
782.317	104.14
782.62	100.58
782.923	98.49
783.225	102.84
783.527	107.46
783.83	97.1
784.132	106.24
784.435	107.21
784.737	102.1
785.039	96.62
785.341	94.38
785.643	100.93
785.945	99.94
786.248	107.62
786.55	105.4
786.851	100.67
787.153	94.09
787.455	87.2
787.757	96.04
788.059	92.14
788.36	97.72
788.662	103.8
788.964	119.84
789.265	119.53
789.567	127.21
789.868	113.96
790.17	108.01
790.471	101.87
790.772	100.57
791.074	110.49
791.375	117.87
791.676	95.94
791.977	91.39
792.278	91.74
792.579	85.48
792.88	77.76
793.181	71.25
793.482	74.87
793.783	64.77
794.083	70.59
794.384	75.98
794.685	79.54
794.986	93.41
795.286	58.3
795.587	61.48
795.887	64.28
796.188	62.25
796.488	57.47
796.788	53.23
797.089	49.35
797.389	52.49
797.689	61.26
797.989	83.88
798.289	84.92
798.589	76.82
798.889	73.16
799.189	71.83
799.489	79.94
799.789	62.66
800.089	62.56
800.389	58.97
800.688	57.6
800.988	51.81
801.288	54.15
801.587	35.31
801.887	18.03
802.186	5.05
802.486	9.45
802.785	23.47
803.085	30.94
803.384	17.76
803.683	3.7
803.982	7.6
804.281	0.93
804.58	15.42
804.879	-43.13
805.178	-86.49
805.477	-45.52
805.776	-29.68
806.075	24.77
806.374	61.2
806.673	71.45
806.971	92.05
807.27	535.56
807.569	1345.98
807.867	1360.5
808.166	-568.68
808.464	-458.92
808.763	-136.84
809.061	-64.15
809.359	-147.27
809.658	-179.26
809.956	-172.29
810.254	-123.19
810.552	-79.39
810.85	-94.71
811.148	-82.15
811.446	-48.99
811.744	-86.76
812.042	-20.44
812.34	-60.85
812.638	-81.53
812.935	-116.95
813.233	-110.2
813.531	-126.81
813.828	-101.5
814.126	-121.08
814.423	-184.88
814.721	-369.53
815.018	-268.41
815.316	-143.13
815.613	-75.28
815.91	-102.93
816.207	-89.68
816.504	-104.95
816.802	-146.44
817.099	-122.68
817.396	-160.77
817.693	-200.13
817.99	-415.64
818.286	-229.79
818.583	633.63
818.88	-640.59
819.177	-308.4
819.473	-700.72
819.77	-713.91
820.067	-1927.86
820.363	-4146.58
820.66	1374.32
820.956	-762.62
821.252	5710.26
821.549	-1730.66
821.845	-980.99
822.141	327.54
822.437	253
822.734	690.35
823.03	-1308.28
823.326	-392.8
823.622	-585.84
823.918	-4300
824.213	-832.38
824.509	-604.38
824.805	-185.71
825.101	-97.8
825.397	-9.82
825.692	-60.1
825.988	47.57
826.283	105.93
826.579	116.21
826.874	-758.25
827.17	-853.85
827.465	244
827.76	105.96
828.056	143.41
828.351	249.4
828.646	61.06
828.941	139.64
829.236	113.79
829.531	113.3
829.826	117.04
830.121	111.63
830.416	58.32
830.711	79.97
831.006	75.37
831.3	23.15
831.595	17.65
831.89	46.38
832.184	28.1
832.479	34.09
832.773	7.86
833.068	17.5
833.362	5.29
833.656	-15.1
833.951	-1.76
834.245	5.2
834.539	18.22
834.833	13.55
835.127	12.25
835.421	-12.67
835.715	10.06
836.009	-8.32
836.303	-10.98
836.597	-23.16
836.891	-18.58
837.185	-30.42
837.478	-21.71
837.772	-5.07
838.066	-12.19
838.359	-10.01
838.653	6.12
838.946	-14.46
839.24	-77.83
839.533	-99.75
839.826	-177.64
840.119	-174.95
840.413	-245.65
840.706	-232.45
840.999	-157.38
841.292	-212.49
841.585	-130.54
841.878	-85.93
842.171	-123.58
842.464	-187.26
842.757	-209.19
843.049	-223.4
843.342	-101.17
843.635	-108.58
843.927	-145.99
844.22	-142.66
844.513	-198.79
844.805	-465.56
845.098	-874.12
845.39	-663.29
845.682	-704.54
845.975	-1130.19
846.267	-331.27
846.559	-141.63
846.851	-68.87
847.143	-59.26
847.435	-44.06
847.727	-15.78
848.019	-41.2
848.311	-138.55
848.603	-227.9
848.895	235.78
849.186	115.71
849.478	3839.13
849.77	-282.98
850.061	-172.96
850.353	311.76
850.645	179.47
850.936	130.04
851.227	8500
851.519	561.74
851.81	-386.71
852.101	-245.86
852.393	-451.15
852.684	913.25
852.975	436.7
853.266	280.26
853.557	216.29
853.848	165.56
854.139	160.63
854.43	144.03
854.72	258.3
855.011	391.92
855.302	492.07
855.593	489.23
855.883	720.69
856.174	579.64
856.464	2327.32
856.755	-1956.22
857.045	-947.21
857.336	-1100
857.626	5594.25
857.916	-3890.08
858.206	19700
858.497	660.59
858.787	735.82
859.077	950.11
859.367	403.56
859.657	588.54
859.947	2837.72
860.237	-2676.64
860.527	-546.62
860.816	-453.88
861.106	-227.35
861.396	-243.69
861.685	-481.22
861.975	-839.6
862.265	-1100
862.554	-580.27
862.844	2423.5
863.133	1522.05
863.422	1704.86
863.712	493.4
864.001	236.5
864.29	246.92
864.579	234.49
864.868	259.86
865.157	241.36
865.446	346.31
865.735	384.66
866.024	341.58
866.313	218.04
866.602	351.43
866.891	269.6
867.179	164.62
867.468	178.19
