Data from T1_Reflection__97__23-35-53-123.txt Node

Date: Wed Jun 02 23:35:53 CEST 2021
User: mabdelazizm
Spectrometer: FLMS18565
Trigger mode: 0
Integration Time (sec): 2.000000E0
Scans to average: 1
Electric dark correction enabled: true
Nonlinearity correction enabled: false
Boxcar width: 12
XAxis mode: Wavelengths
Number of Pixels in Spectrum: 2048
>>>>>Begin Spectral Data<<<<<
179.071	54.23
179.452	78.26
179.833	9.89
180.214	-36.36
180.595	-596.26
180.977	-310.57
181.358	-190.41
181.739	-615.69
182.12	-195.23
182.501	-246.69
182.882	-62.29
183.262	-140.95
183.643	-55.84
184.024	-23.51
184.405	-13.47
184.786	-3.77
185.166	-16.81
185.547	-5.91
185.927	-18.44
186.308	-13.41
186.689	-12.09
187.069	-10.57
187.449	-11.16
187.83	-13.97
188.21	-12.94
188.59	-12.34
188.971	-9.17
189.351	-8.3
189.731	-5.24
190.111	-2.1
190.491	0.18
190.871	1.58
191.251	1.44
191.631	1.48
192.011	1.99
192.391	2.58
192.771	5.82
193.151	6.24
193.531	6.71
193.91	6.37
194.29	6.29
194.67	6.79
195.049	6.81
195.429	8.92
195.808	8.94
196.188	8.66
196.567	8.29
196.946	8.51
197.326	10.05
197.705	9.82
198.084	10.44
198.464	9.4
198.843	10.17
199.222	9.39
199.601	8.82
199.98	8.96
200.359	8.26
200.738	11.36
201.117	11.06
201.496	10.16
201.875	7.68
202.254	6.73
202.632	6.44
203.011	5.72
203.39	5.8
203.768	5.56
204.147	7.22
204.525	6.25
204.904	5
205.282	4.19
205.661	3.87
206.039	4.61
206.418	5.29
206.796	5.55
207.174	5.74
207.552	5.5
207.931	5.65
208.309	5.57
208.687	5.51
209.065	5.7
209.443	4.59
209.821	4.2
210.199	2.25
210.577	2.07
210.954	2.95
211.332	3.52
211.71	4.44
212.088	4.19
212.465	4.77
212.843	4.53
213.221	3.87
213.598	3.61
213.976	3.07
214.353	3.42
214.731	3.18
215.108	3.38
215.485	2.74
215.863	2.41
216.24	1.43
216.617	1.07
216.994	0.94
217.371	0.94
217.749	1.01
218.126	1.2
218.503	0.96
218.88	0.62
219.256	1.03
219.633	1.1
220.01	1.44
220.387	2.27
220.764	2.5
221.14	1.92
221.517	1.84
221.894	1.5
222.27	2.41
222.647	2.81
223.023	2.18
223.4	2.78
223.776	3.35
224.153	3.19
224.529	2.99
224.905	3.78
225.282	3.89
225.658	4.25
226.034	4.19
226.41	4.39
226.786	4.53
227.162	4.69
227.538	4.96
227.914	4.91
228.29	5.03
228.666	4.66
229.042	4.49
229.418	4.31
229.793	3.84
230.169	3.78
230.545	3.64
230.92	3.69
231.296	3.71
231.672	3.67
232.047	3.72
232.422	3.9
232.798	3.79
233.173	3.48
233.549	3.55
233.924	3.42
234.299	3.07
234.674	3.16
235.05	3.02
235.425	3.1
235.8	2.98
236.175	2.84
236.55	2.78
236.925	2.63
237.3	2.69
237.675	2.63
238.049	2.77
238.424	2.85
238.799	2.82
239.174	2.91
239.548	2.91
239.923	2.95
240.297	2.89
240.672	2.85
241.046	2.72
241.421	2.7
241.795	2.62
242.17	2.73
242.544	2.8
242.918	2.84
243.293	2.97
243.667	3.05
244.041	2.94
244.415	2.96
244.789	2.95
245.163	2.98
245.537	3.04
245.911	3
246.285	3.04
246.659	3.03
247.033	3.09
247.406	3.1
247.78	3.07
248.154	3.1
248.528	3.07
248.901	3.06
249.275	3.06
249.648	3.07
250.022	3.09
250.395	3.15
250.769	3.18
251.142	3.23
251.515	3.15
251.888	3.12
252.262	3.03
252.635	3
253.008	2.99
253.381	2.92
253.754	2.87
254.127	2.9
254.5	2.89
254.873	2.77
255.246	2.76
255.619	2.78
255.992	2.73
256.364	2.75
256.737	2.77
257.11	2.83
257.483	2.81
257.855	2.79
258.228	2.79
258.6	2.78
258.973	2.79
259.345	2.84
259.718	2.77
260.09	2.71
260.462	2.63
260.834	2.61
261.207	2.59
261.579	2.7
261.951	2.67
262.323	2.59
262.695	2.63
263.067	2.65
263.439	2.55
263.811	2.54
264.183	2.55
264.555	2.47
264.927	2.41
265.298	2.42
265.67	2.34
266.042	2.27
266.413	2.22
266.785	2.2
267.156	2.21
267.528	2.14
267.899	2.16
268.271	2.14
268.642	2.06
269.013	2.03
269.385	2.07
269.756	2.08
270.127	2.06
270.498	2.08
270.87	1.99
271.241	1.94
271.612	1.94
271.983	1.94
272.354	1.93
272.724	1.98
273.095	1.98
273.466	2
273.837	2.12
274.208	2.11
274.578	2.11
274.949	2.2
275.32	2.21
275.69	2.17
276.061	2.14
276.431	2.16
276.802	2.12
277.172	2.08
277.542	2.08
277.913	2.1
278.283	2.12
278.653	2.03
279.023	2.08
279.394	2.09
279.764	2.02
280.134	2.06
280.504	2.09
280.874	2.13
281.244	2.07
281.614	2.08
281.983	2.05
282.353	2.07
282.723	2.14
283.093	2.05
283.462	2.03
283.832	2.01
284.202	1.96
284.571	1.92
284.941	1.87
285.31	1.9
285.68	1.86
286.049	1.9
286.418	1.88
286.788	1.96
287.157	1.89
287.526	1.88
287.895	1.92
288.264	1.88
288.633	1.82
289.002	1.87
289.371	1.84
289.74	1.77
290.109	1.7
290.478	1.74
290.847	1.74
291.216	1.75
291.585	1.64
291.953	1.56
292.322	1.56
292.691	1.57
293.059	1.54
293.428	1.51
293.796	1.5
294.165	1.55
294.533	1.51
294.901	1.52
295.27	1.54
295.638	1.49
296.006	1.37
296.374	1.44
296.743	1.38
297.111	1.35
297.479	1.34
297.847	1.33
298.215	1.29
298.583	1.29
298.95	1.33
299.318	1.35
299.686	1.32
300.054	1.29
300.422	1.24
300.789	1.32
301.157	1.29
301.525	1.3
301.892	1.26
302.26	1.31
302.627	1.29
302.994	1.28
303.362	1.29
303.729	1.27
304.097	1.23
304.464	1.16
304.831	1.2
305.198	1.17
305.565	1.18
305.932	1.23
306.299	1.24
306.666	1.22
307.033	1.26
307.4	1.29
307.767	1.28
308.134	1.31
308.501	1.29
308.867	1.3
309.234	1.35
309.601	1.37
309.967	1.31
310.334	1.32
310.701	1.24
311.067	1.27
311.433	1.26
311.8	1.29
312.166	1.31
312.533	1.32
312.899	1.33
313.265	1.32
313.631	1.35
313.997	1.37
314.363	1.38
314.729	1.33
315.096	1.28
315.461	1.27
315.827	1.27
316.193	1.28
316.559	1.28
316.925	1.25
317.291	1.24
317.656	1.24
318.022	1.28
318.388	1.2
318.753	1.18
319.119	1.24
319.484	1.24
319.85	1.34
320.215	1.29
320.581	1.22
320.946	1.19
321.311	1.12
321.676	1.05
322.042	1.03
322.407	1.1
322.772	1.16
323.137	1.17
323.502	1.18
323.867	1.19
324.232	1.24
324.597	1.25
324.962	1.31
325.327	1.29
325.691	1.31
326.056	1.39
326.421	1.38
326.785	1.36
327.15	1.31
327.514	1.34
327.879	1.29
328.243	1.21
328.608	1.24
328.972	1.22
329.337	1.28
329.701	1.32
330.065	1.3
330.429	1.28
330.794	1.34
331.158	1.36
331.522	1.36
331.886	1.32
332.25	1.21
332.614	1.23
332.978	1.2
333.342	1.23
333.705	1.21
334.069	1.14
334.433	1.17
334.797	1.13
335.16	1.08
335.524	1.05
335.887	1.05
336.251	1.06
336.614	1.05
336.978	1.09
337.341	1.14
337.705	1.15
338.068	1.2
338.431	1.18
338.794	1.19
339.158	1.19
339.521	1.28
339.884	1.24
340.247	1.23
340.61	1.12
340.973	1.13
341.336	1.18
341.699	1.16
342.062	1.16
342.424	1.14
342.787	1.1
343.15	1.07
343.512	1.02
343.875	0.99
344.238	0.9
344.6	0.97
344.963	1.03
345.325	1.06
345.688	1.03
346.05	1.04
346.412	0.99
346.775	0.98
347.137	0.9
347.499	0.92
347.861	0.94
348.223	0.95
348.585	0.86
348.947	0.9
349.309	0.89
349.671	0.92
350.033	0.9
350.395	0.85
350.757	0.82
351.118	0.8
351.48	0.82
351.842	0.87
352.203	0.81
352.565	0.83
352.927	0.94
353.288	0.94
353.65	0.88
354.011	0.8
354.372	0.85
354.734	0.88
355.095	0.89
355.456	0.88
355.817	0.88
356.179	0.87
356.54	0.87
356.901	0.83
357.262	0.82
357.623	0.81
357.984	0.82
358.345	0.84
358.705	0.81
359.066	0.79
359.427	0.9
359.788	0.96
360.148	0.96
360.509	0.89
360.87	0.85
361.23	0.92
361.591	0.94
361.951	0.85
362.312	0.95
362.672	1.02
363.032	1.05
363.393	1
363.753	1.01
364.113	0.99
364.473	1.04
364.833	1.07
365.193	1.09
365.553	1.09
365.913	1.03
366.273	1.1
366.633	1.17
366.993	1.1
367.353	1.07
367.713	1.13
368.072	1.12
368.432	1.03
368.792	1.08
369.151	1.04
369.511	1.07
369.87	1.11
370.23	1.15
370.589	1.15
370.949	1.12
371.308	1.06
371.667	0.97
372.027	0.97
372.386	0.92
372.745	0.91
373.104	0.93
373.463	0.96
373.822	0.9
374.181	0.95
374.54	0.91
374.899	0.98
375.258	0.87
375.617	0.85
375.975	0.93
376.334	0.97
376.693	0.94
377.052	0.9
377.41	0.95
377.769	0.91
378.127	0.95
378.486	1.03
378.844	0.98
379.202	0.94
379.561	0.92
379.919	0.93
380.277	0.96
380.636	1.04
380.994	1.07
381.352	1.07
381.71	1.09
382.068	1.08
382.426	1.04
382.784	1.08
383.142	1.05
383.5	1.09
383.857	1.09
384.215	1.14
384.573	1.1
384.931	0.99
385.288	0.96
385.646	0.96
386.003	0.95
386.361	0.92
386.718	0.92
387.076	0.97
387.433	0.87
387.791	0.89
388.148	0.99
388.505	1.02
388.862	1.05
389.22	1.14
389.577	1.19
389.934	1.23
390.291	1.28
390.648	1.19
391.005	1.17
391.362	1.16
391.718	1.12
392.075	1.13
392.432	1.12
392.789	1.1
393.145	1.14
393.502	1.19
393.859	1.23
394.215	1.37
394.572	1.45
394.928	1.54
395.285	1.61
395.641	1.64
395.997	1.7
396.354	1.85
396.71	1.93
397.066	1.95
397.422	1.97
397.778	2.05
398.134	2.01
398.491	1.98
398.846	1.93
399.202	2.02
399.558	2.14
399.914	2.21
400.27	2.33
400.626	2.44
400.981	2.46
401.337	2.53
401.693	2.73
402.048	2.87
402.404	3.01
402.759	3.17
403.115	3.18
403.47	3.3
403.826	3.48
404.181	3.63
404.536	3.71
404.892	3.83
405.247	3.86
405.602	3.99
405.957	4.09
406.312	4.28
406.667	4.44
407.022	4.74
407.377	4.94
407.732	5.2
408.087	5.39
408.442	5.62
408.796	5.87
409.151	6.1
409.506	6.37
409.86	6.7
410.215	7.06
410.57	7.27
410.924	7.51
411.279	7.78
411.633	8.1
411.987	8.48
412.342	8.76
412.696	9.05
413.05	9.43
413.404	9.87
413.758	10.35
414.113	10.81
414.467	11.22
414.821	11.63
415.175	12.05
415.529	12.49
415.882	12.83
416.236	13.24
416.59	13.67
416.944	14.13
417.298	14.68
417.651	15.12
418.005	15.62
418.358	16.08
418.712	16.59
419.065	16.98
419.419	17.42
419.772	17.89
420.126	18.43
420.479	19.06
420.832	19.53
421.185	20.02
421.539	20.54
421.892	21.02
422.245	21.46
422.598	21.89
422.951	22.5
423.304	23.12
423.657	23.66
424.01	24.31
424.363	24.87
424.715	25.46
425.068	26.11
425.421	26.79
425.773	27.4
426.126	27.98
426.479	28.54
426.831	29.03
427.184	29.55
427.536	30.14
427.889	30.76
428.241	31.41
428.593	31.92
428.945	32.49
429.298	32.88
429.65	33.5
430.002	34.03
430.354	34.59
430.706	35.03
431.058	35.62
431.41	36.05
431.762	36.39
432.114	36.75
432.466	37.3
432.817	37.69
433.169	38.27
433.521	38.87
433.872	39.24
434.224	39.51
434.576	39.85
434.927	40.18
435.279	40.61
435.63	41
435.981	41.38
436.333	41.76
436.684	42.28
437.035	42.65
437.387	42.95
437.738	43.13
438.089	43.41
438.44	43.63
438.791	43.9
439.142	44.05
439.493	44.41
439.844	44.63
440.195	45
440.545	45.35
440.896	45.52
441.247	45.88
441.598	46.18
441.948	46.38
442.299	46.49
442.649	46.89
443	47.18
443.35	47.43
443.701	47.75
444.051	48.01
444.401	48.11
444.752	48.28
445.102	48.3
445.452	48.24
445.802	48.29
446.152	48.47
446.502	48.7
446.852	48.98
447.202	49.05
447.552	49.22
447.902	49.46
448.252	49.5
448.602	51.02
448.952	51.19
449.301	51.34
449.651	51.49
450.001	51.44
450.35	51.45
450.7	51.44
451.049	51.58
451.399	51.49
451.748	51.7
452.097	51.6
452.447	51.61
452.796	51.54
453.145	51.71
453.494	51.81
453.843	51.92
454.193	52
454.542	52.03
454.891	52.08
455.239	52.02
455.588	52.16
455.937	52.36
456.286	52.39
456.635	52.56
456.984	52.71
457.332	51.09
457.681	51.03
458.03	50.98
458.378	51.03
458.727	51.01
459.075	51.13
459.423	51.34
459.772	51.42
460.12	51.42
460.468	51.23
460.817	51.48
461.165	51.45
461.513	51.45
461.861	51.66
462.209	51.63
462.557	51.48
462.905	51.46
463.253	51.41
463.601	51.36
463.949	51.47
464.297	51.3
464.644	51.15
464.992	51.07
465.34	50.98
465.687	50.94
466.035	50.92
466.383	50.88
466.73	50.7
467.078	50.7
467.425	50.71
467.772	50.49
468.12	50.33
468.467	50.31
468.814	50.31
469.161	50.45
469.508	50.28
469.856	50.13
470.203	50.07
470.55	49.72
470.897	49.71
471.243	49.71
471.59	49.65
471.937	49.69
472.284	49.61
472.631	49.47
472.977	49.46
473.324	49.43
473.671	49.38
474.017	49.35
474.364	49.14
474.71	49.05
475.057	48.9
475.403	48.82
475.749	48.78
476.096	48.73
476.442	48.72
476.788	48.68
477.134	48.57
477.48	48.44
477.826	48.18
478.172	48.08
478.518	48.05
478.864	48.06
479.21	48.01
479.556	47.89
479.902	47.82
480.248	47.66
480.593	47.65
480.939	47.64
481.285	47.58
481.63	47.49
481.976	47.31
482.321	47.25
482.667	47.03
483.012	46.9
483.357	46.81
483.703	46.76
484.048	46.85
484.393	46.72
484.738	46.72
485.084	46.56
485.429	46.41
485.774	46.32
486.119	46.34
486.464	46.4
486.808	46.38
487.153	46.36
487.498	46.21
487.843	46.11
488.188	45.93
488.532	45.82
488.877	45.71
489.222	45.61
489.566	45.51
489.911	45.32
490.255	45.16
490.6	45.03
490.944	44.96
491.288	44.95
491.633	44.92
491.977	44.81
492.321	44.69
492.665	44.53
493.009	44.51
493.353	44.26
493.697	44.23
494.041	44.11
494.385	44.05
494.729	43.86
495.073	43.75
495.417	43.63
495.76	43.44
496.104	43.37
496.448	43.37
496.791	43.33
497.135	43.29
497.479	43.23
497.822	43.13
498.165	43
498.509	43.04
498.852	42.89
499.196	42.88
499.539	42.73
499.882	42.57
500.225	42.52
500.568	42.49
500.911	42.34
501.254	42.25
501.597	42.14
501.94	42.1
502.283	42.04
502.626	41.99
502.969	41.92
503.312	41.82
503.654	41.73
503.997	41.59
504.34	41.5
504.682	41.41
505.025	41.3
505.367	41.18
505.71	41.03
506.052	40.95
506.395	40.8
506.737	40.71
507.079	40.6
507.421	40.55
507.764	40.51
508.106	40.38
508.448	40.41
508.79	40.33
509.132	40.22
509.474	40.21
509.816	39.99
510.158	39.77
510.499	39.63
510.841	39.54
511.183	39.41
511.525	39.26
511.866	39.03
512.208	38.79
512.549	38.67
512.891	38.65
513.232	38.49
513.574	38.32
513.915	38.25
514.256	38.14
514.598	38.11
514.939	37.91
515.28	37.8
515.621	37.69
515.962	37.55
516.303	37.46
516.644	37.47
516.985	37.32
517.326	37.23
517.667	37.09
518.008	36.99
518.349	36.98
518.69	36.97
519.03	36.83
519.371	36.63
519.712	36.7
520.052	36.65
520.393	36.77
520.733	36.72
521.074	36.76
521.414	36.71
521.754	36.62
522.095	36.56
522.435	36.61
522.775	36.62
523.115	36.47
523.455	36.36
523.795	36.32
524.135	36.19
524.475	36.06
524.815	35.89
525.155	35.74
525.495	35.58
525.835	35.45
526.175	35.4
526.514	35.27
526.854	35.14
527.194	35.13
527.533	35.09
527.873	34.99
528.212	34.71
528.552	34.58
528.891	34.47
529.23	34.47
529.57	34.35
529.909	34.13
530.248	34.1
530.587	34.01
530.927	33.76
531.266	33.64
531.605	33.59
531.944	33.65
532.283	33.53
532.621	33.46
532.96	33.52
533.299	33.53
533.638	33.55
533.977	33.42
534.315	33.43
534.654	33.45
534.992	33.45
535.331	33.32
535.67	33.11
536.008	32.95
536.346	32.97
536.685	32.88
537.023	32.67
537.361	32.56
537.7	32.36
538.038	32.2
538.376	32.14
538.714	32.1
539.052	32.04
539.39	32.03
539.728	31.98
540.066	31.87
540.404	31.8
540.741	31.74
541.079	31.66
541.417	31.44
541.755	31.24
542.092	30.93
542.43	30.94
542.767	30.72
543.105	30.58
543.442	30.63
543.78	30.72
544.117	30.78
544.454	30.91
544.792	30.82
545.129	30.89
545.466	30.8
545.803	30.71
546.14	30.62
546.477	30.55
546.814	30.48
547.151	30.36
547.488	30.33
547.825	30.12
548.162	30.09
548.499	30.06
548.835	29.9
549.172	29.9
549.509	29.88
549.845	29.99
550.182	30.07
550.518	30.14
550.855	30.1
551.191	30.12
551.528	30.08
551.864	29.85
552.2	29.7
552.537	29.61
552.873	29.59
553.209	29.64
553.545	29.62
553.881	29.69
554.217	29.68
554.553	29.87
554.889	29.93
555.225	29.99
555.561	30.04
555.896	29.91
556.232	30.04
556.568	29.98
556.903	29.99
557.239	30.02
557.575	30
557.91	30.05
558.245	30.04
558.581	30.07
558.916	30.22
559.252	30.33
559.587	30.37
559.922	30.43
560.257	30.66
560.592	30.86
560.928	30.92
561.263	31.1
561.598	31.14
561.933	31.09
562.267	31.28
562.602	31.44
562.937	31.36
563.272	31.44
563.607	31.41
563.941	31.41
564.276	31.54
564.611	31.53
564.945	31.64
565.28	31.64
565.614	31.7
565.949	31.82
566.283	31.99
566.617	32.14
566.951	32.05
567.286	32.05
567.62	32.03
567.954	32.12
568.288	32.23
568.622	32.27
568.956	32.23
569.29	32.25
569.624	32.09
569.958	32.06
570.292	32.17
570.626	32.32
570.959	32.36
571.293	32.45
571.627	32.51
571.96	32.66
572.294	32.71
572.627	32.77
572.961	32.84
573.294	32.82
573.627	32.86
573.961	32.94
574.294	32.97
574.627	32.97
574.961	32.94
575.294	33.01
575.627	33
575.96	33.04
576.293	33.06
576.626	33
576.959	32.96
577.292	33
577.624	33.13
577.957	33.24
578.29	33.34
578.623	33.32
578.955	33.14
579.288	33.08
579.62	33.12
579.953	33.14
580.285	33.16
580.618	33.29
580.95	33.34
581.282	33.29
581.615	33.43
581.947	33.48
582.279	33.54
582.611	33.6
582.943	33.66
583.275	33.71
583.607	33.89
583.939	33.99
584.271	34.07
584.603	34.14
584.935	34.2
585.267	34.3
585.598	34.38
585.93	34.41
586.262	34.47
586.593	34.54
586.925	34.55
587.256	34.78
587.588	34.94
587.919	35.11
588.25	35.19
588.582	35.19
588.913	35.15
589.244	35.19
589.575	35.5
589.907	35.58
590.238	35.72
590.569	35.78
590.9	35.77
591.231	35.8
591.562	35.91
591.892	35.87
592.223	36.09
592.554	36.25
592.885	36.28
593.215	36.41
593.546	36.5
593.877	36.51
594.207	36.56
594.538	36.52
594.868	36.62
595.198	36.84
595.529	36.93
595.859	37.12
596.189	37.09
596.52	37.27
596.85	37.48
597.18	37.78
597.51	37.85
597.84	37.85
598.17	37.86
598.5	37.94
598.83	38.18
599.16	38.39
599.489	38.58
599.819	38.73
600.149	38.94
600.479	39
600.808	39.16
601.138	39.38
601.467	39.55
601.797	39.75
602.126	40.03
602.456	40.27
602.785	40.62
603.114	40.86
603.443	41.17
603.773	41.44
604.102	41.56
604.431	41.83
604.76	41.92
605.089	42.1
605.418	42.02
605.747	42.28
606.076	42.43
606.405	42.56
606.733	42.8
607.062	43.05
607.391	43.18
607.72	43.24
608.048	43.37
608.377	43.61
608.705	43.74
609.034	43.89
609.362	44.21
609.69	44.48
610.019	44.73
610.347	45.04
610.675	45.14
611.004	45.23
611.332	45.41
611.66	45.53
611.988	45.52
612.316	45.64
612.644	45.71
612.972	45.89
613.3	46.01
613.627	46.4
613.955	46.54
614.283	46.8
614.611	47.21
614.938	47.33
615.266	47.34
615.593	47.65
615.921	48.09
616.248	48.34
616.576	48.62
616.903	49.08
617.23	49.6
617.558	50.02
617.885	50.23
618.212	50.39
618.539	50.6
618.866	50.73
619.193	51.17
619.52	51.08
619.847	51.15
620.174	51.51
620.501	51.64
620.828	51.78
621.155	51.9
621.481	52.08
621.808	52.19
622.135	52.49
622.461	52.67
622.788	52.88
623.114	53.03
623.441	53.18
623.767	53.34
624.093	53.52
624.42	53.68
624.746	53.91
625.072	54.18
625.398	54.23
625.725	54.13
626.051	54.43
626.377	54.82
626.703	54.83
627.029	55.18
627.354	55.23
627.68	55.61
628.006	56.14
628.332	56.08
628.658	56.5
628.983	56.72
629.309	57.06
629.634	57.37
629.96	57.2
630.285	57.57
630.611	57.88
630.936	57.74
631.262	58.01
631.587	58.28
631.912	58.33
632.237	58.61
632.562	59.12
632.887	58.95
633.213	59.01
633.538	59.08
633.863	58.86
634.187	58.46
634.512	58.65
634.837	58.75
635.162	58.73
635.487	58.49
635.811	58.88
636.136	58.8
636.461	59.13
636.785	58.93
637.11	59.08
637.434	59.33
637.758	59.28
638.083	60.21
638.407	60.25
638.731	60.45
639.056	61.21
639.38	61.74
639.704	61.61
640.028	62.22
640.352	62.05
640.676	61.96
641	61.99
641.324	61.72
641.648	61.74
641.972	62.2
642.295	62.67
642.619	62.94
642.943	62.82
643.266	63.38
643.59	63.96
643.913	64.18
644.237	64.15
644.56	63.78
644.884	63.79
645.207	64.26
645.53	63.69
645.854	64.22
646.177	63.59
646.5	63.89
646.823	63.66
647.146	63.26
647.469	62.57
647.792	62.58
648.115	62.12
648.438	62.33
648.761	63.61
649.084	64.16
649.406	64.5
649.729	63.34
650.052	62.89
650.374	62.94
650.697	62.5
651.019	62.43
651.342	62.19
651.664	62.27
651.987	62.17
652.309	62.33
652.631	62.53
652.953	62.5
653.276	62.28
653.598	62.32
653.92	62.16
654.242	62.5
654.564	62.46
654.886	62.41
655.208	62.39
655.53	62.44
655.851	62.44
656.173	62.66
656.495	62.68
656.816	62.17
657.138	61.76
657.46	61.17
657.781	62.22
658.103	63.09
658.424	63.36
658.746	64.07
659.067	64.62
659.388	64.64
659.709	63.79
660.031	63.73
660.352	63.12
660.673	62.81
660.994	64.36
661.315	64.77
661.636	65.02
661.957	64.83
662.278	64.49
662.599	64.27
662.919	64.7
663.24	64.49
663.561	64.86
663.881	64.95
664.202	64.3
664.523	64.05
664.843	62.9
665.164	62.94
665.484	62.09
665.804	62.43
666.125	62.19
666.445	61.12
666.765	61.36
667.085	61.6
667.405	62.21
667.726	63.4
668.046	63.26
668.366	62.93
668.686	62.82
669.005	61.45
669.325	61.9
669.645	61.95
669.965	61.66
670.285	61.26
670.604	60.65
670.924	59.75
671.243	59.96
671.563	60.26
671.882	60.05
672.202	60.05
672.521	59.86
672.841	60.69
673.16	59.95
673.479	59.96
673.798	60.09
674.117	60.68
674.437	61.31
674.756	62.01
675.075	61.8
675.394	61.37
675.713	60.53
676.031	60.94
676.35	61.11
676.669	61.1
676.988	62.08
677.306	61.63
677.625	62.84
677.944	63.83
678.262	63.43
678.581	64.35
678.899	65.01
679.218	65.44
679.536	65.13
679.854	65.09
680.172	65.44
680.491	65.54
680.809	65.55
681.127	66.08
681.445	66.51
681.763	66.56
682.081	65.97
682.399	66.71
682.717	66.41
683.035	67.43
683.352	67.3
683.67	67.5
683.988	68.01
684.306	67.93
684.623	67.33
684.941	67.37
685.258	67.26
685.576	66.61
685.893	66.03
686.211	66.85
686.528	66.69
686.845	67.32
687.162	67.11
687.48	67.24
687.797	67.13
688.114	66.97
688.431	67.29
688.748	67.5
689.065	67.36
689.382	67.04
689.699	66.27
690.015	66.75
690.332	66.6
690.649	66.14
690.966	65.1
691.282	65.64
691.599	65.81
691.915	64.5
692.232	64.44
692.548	65
692.865	64.39
693.181	64.65
693.497	64.38
693.813	64.77
694.13	64.5
694.446	64.89
694.762	64.4
695.078	64.07
695.394	64.03
695.71	65.1
696.026	65.1
696.342	64.52
696.658	64.89
696.973	65.3
697.289	65.39
697.605	65.18
697.92	64.48
698.236	64.82
698.551	64.62
698.867	65.51
699.182	66.14
699.498	65.76
699.813	67.37
700.128	68.06
700.444	68.44
700.759	67.93
701.074	67.53
701.389	67.5
701.704	68.07
702.019	68.14
702.334	67.82
702.649	67.59
702.964	66.67
703.279	65.84
703.594	65.83
703.908	65.98
704.223	66.67
704.538	66.01
704.852	65.38
705.167	65.5
705.481	66.79
705.796	67.31
706.11	65.53
706.425	66.32
706.739	64.77
707.053	64.37
707.368	64.71
707.682	63.35
707.996	63.57
708.31	63.19
708.624	63.62
708.938	64.41
709.252	64.42
709.566	63.62
709.88	63.97
710.193	63.65
710.507	63.49
710.821	64.91
711.135	65.57
711.448	65.81
711.762	66.28
712.075	65.76
712.389	66.72
712.702	66.88
713.015	66.53
713.329	65.91
713.642	66.63
713.955	68.36
714.269	68.11
714.582	68.46
714.895	68.3
715.208	68.56
715.521	69.09
715.834	68.38
716.147	69
716.459	68.02
716.772	67.49
717.085	69.07
717.398	69.12
717.71	67.88
718.023	69.08
718.336	68.97
718.648	68.87
718.961	68.88
719.273	67.47
719.585	66.81
719.898	66.8
720.21	66.8
720.522	66.29
720.834	68.43
721.147	70.16
721.459	69.35
721.771	69.9
722.083	69.5
722.395	69.92
722.707	71.25
723.019	70.79
723.33	70.64
723.642	71.7
723.954	72.06
724.265	72.69
724.577	70.87
724.889	69.58
725.2	68.66
725.512	67.56
725.823	67.06
726.135	67.57
726.446	67.41
726.757	67.77
727.068	68.82
727.38	68.2
727.691	68.33
728.002	67.61
728.313	68.54
728.624	67.21
728.935	66.4
729.246	66.09
729.557	65.55
729.867	65.36
730.178	64.76
730.489	63.84
730.8	63.93
731.11	64.14
731.421	63.27
731.731	62.49
732.042	63.45
732.352	63.8
732.663	63.2
732.973	63.76
733.283	64.43
733.594	64.03
733.904	63.02
734.214	62.79
734.524	62.42
734.834	62.44
735.144	63.06
735.454	63.36
735.764	62.89
736.074	63.13
736.384	62.8
736.694	62.67
737.003	62.45
737.313	62.53
737.623	62.82
737.932	64.01
738.242	64.34
738.551	64.58
738.861	64.56
739.17	65.42
739.479	66.02
739.789	65.53
740.098	66.3
740.407	66.64
740.716	66.89
741.025	66.16
741.334	67.31
741.643	68.55
741.952	67.93
742.261	68.73
742.57	68.35
742.879	67.78
743.188	66.45
743.497	66.21
743.805	64.23
744.114	66.6
744.422	66.96
744.731	68.5
745.04	68.4
745.348	68.52
745.656	67.51
745.965	65.84
746.273	65.82
746.581	66.45
746.889	66.13
747.198	64.96
747.506	64.59
747.814	65.73
748.122	66.93
748.43	68.04
748.738	71.41
749.046	69.98
749.353	69.98
749.661	70.75
749.969	71.45
750.277	69.77
750.584	70.48
750.892	71.4
751.199	72.82
751.507	75.11
751.814	73.2
752.122	72.6
752.429	72.65
752.736	73.43
753.044	71.99
753.351	74.04
753.658	76.79
753.965	79.01
754.272	78.2
754.579	77.85
754.886	79.44
755.193	78.93
755.5	77.2
755.807	75
756.114	73.36
756.42	73.48
756.727	73.76
757.034	74.53
757.34	76.67
757.647	76.78
757.953	78.58
758.26	76.01
758.566	75.11
758.872	74.24
759.179	72.63
759.485	74.09
759.791	73.95
760.097	72.57
760.403	71.54
760.709	71.24
761.015	68.05
761.321	65.87
761.627	62.96
761.933	66.16
762.239	66.27
762.545	63.71
762.851	64.57
763.156	63.38
763.462	63.72
763.767	64.22
764.073	62.49
764.378	61.07
764.684	57.27
764.989	52.21
765.295	50.1
765.6	44.39
765.905	48.71
766.21	51.76
766.515	52.82
766.821	54.88
767.126	53.61
767.431	54.95
767.736	54.68
768.041	50.95
768.345	54.27
768.65	56.74
768.955	57.42
769.26	57.23
769.564	52.63
769.869	52.38
770.174	54.68
770.478	55.82
770.783	58.9
771.087	58.42
771.391	58.9
771.696	59.28
772	60.49
772.304	67.35
772.608	73.59
772.913	77.31
773.217	83.63
773.521	82
773.825	78.77
774.129	80.47
774.433	80.15
774.736	78.39
775.04	81.96
775.344	84.66
775.648	86.44
775.951	85.31
776.255	80.91
776.559	79.43
776.862	81.6
777.166	83.27
777.469	83.1
777.772	81.53
778.076	76.73
778.379	74.42
778.682	75.4
778.985	75.28
779.289	74.27
779.592	73.37
779.895	73.21
780.198	73.56
780.501	69.89
780.804	61.02
781.106	61.66
781.409	58.71
781.712	57.13
782.015	53.71
782.317	52.65
782.62	48.66
782.923	51.65
783.225	53.33
783.527	52.65
783.83	50.65
784.132	53.52
784.435	50.53
784.737	48.99
785.039	52.58
785.341	52.75
785.643	50.97
785.945	53.16
786.248	55.48
786.55	56.52
786.851	58.26
787.153	57.84
787.455	55.39
787.757	49.47
788.059	57.95
788.36	65.36
788.662	64.79
788.964	68.79
789.265	60.67
789.567	62.69
789.868	63.05
790.17	64.65
790.471	63.39
790.772	67.03
791.074	69.71
791.375	77.25
791.676	72.25
791.977	77.47
792.278	74.39
792.579	61.39
792.88	54.98
793.181	58.13
793.482	57.64
793.783	47.63
794.083	44.18
794.384	48.03
794.685	53.42
794.986	59.51
795.286	65.19
795.587	46.24
795.887	50.78
796.188	47.88
796.488	45.93
796.788	54.08
797.089	50.99
797.389	43.65
797.689	32.42
797.989	31.52
798.289	11.46
798.589	10.03
798.889	-9.2
799.189	6.1
799.489	-8.78
799.789	-27.48
800.089	-9
800.389	22.12
800.688	29.19
800.988	38.1
801.288	41.57
801.587	28.03
801.887	-31.37
802.186	-4.31
802.486	6.42
802.785	-111.26
803.085	-135.24
803.384	-1108.84
803.683	467
803.982	1662.4
804.281	1099.55
804.58	1293.64
804.879	1759.63
805.178	701.27
805.477	-377.57
805.776	-168.98
806.075	-91.71
806.374	-56.7
806.673	-46.71
806.971	-2.85
807.27	3.95
807.569	14.38
807.867	12.39
808.166	6.86
808.464	0.05
808.763	7.31
809.061	14.55
809.359	17.07
809.658	0.72
809.956	-5.59
810.254	-5.47
810.552	-3.72
810.85	12.87
811.148	15.83
811.446	18.15
811.744	28.77
812.042	21.31
812.34	17.85
812.638	22.03
812.935	21.18
813.233	15.2
813.531	-5.84
813.828	26.82
814.126	13.87
814.423	3.12
814.721	7.58
815.018	-34.01
815.316	-41.16
815.613	-42.72
815.91	-8.63
816.207	-4.22
816.504	12.36
816.802	36.99
817.099	57.44
817.396	52.16
817.693	68.78
817.99	77.16
818.286	71.5
818.583	85.78
818.88	114.92
819.177	79.37
819.473	57.79
819.77	77.45
820.067	60.21
820.363	49.29
820.66	75.2
820.956	81.88
821.252	82.08
821.549	101.89
821.845	86.98
822.141	94.8
822.437	87.48
822.734	80.97
823.03	102.22
823.326	104.58
823.622	91.95
823.918	64.76
824.213	74.88
824.509	74.79
824.805	80.1
825.101	55.37
825.397	73.74
825.692	56.31
825.988	45.17
826.283	42.26
826.579	51.06
826.874	98.22
827.17	88.94
827.465	100.95
827.76	167.84
828.056	31.87
828.351	85.55
828.646	87.66
828.941	-21.61
829.236	38.22
829.531	-151.74
829.826	-42.13
830.121	66.67
830.416	197.78
830.711	214.65
831.006	232.76
831.3	326.35
831.595	518.02
831.89	476.6
832.184	846.15
832.479	1289.33
832.773	1016.44
833.068	2968
833.362	4954.1
833.656	-2488.7
833.951	1133.33
834.245	-398.02
834.539	-2474.78
834.833	-383.3
835.127	-165.13
835.421	-112.56
835.715	-223.87
836.009	-176.93
836.303	-348.23
836.597	-294.42
836.891	-57.87
837.185	-47.64
837.478	-4.74
837.772	-1.08
838.066	29.65
838.359	32.94
838.653	34.24
838.946	45.12
839.24	49.68
839.533	51.43
839.826	45.96
840.119	50.19
840.413	51.39
840.706	45.19
840.999	47.75
841.292	49.67
841.585	35.55
841.878	31.82
842.171	30.74
842.464	19.08
842.757	50.33
843.049	60.34
843.342	65.51
843.635	65.98
843.927	58.51
844.22	61.27
844.513	65.99
844.805	68.07
845.098	65.41
845.39	55.33
845.682	50.01
845.975	46.64
846.267	51.26
846.559	46.71
846.851	44.77
847.143	62.64
847.435	58.83
847.727	64.39
848.019	51.56
848.311	52.07
848.603	49.29
848.895	60.13
849.186	74.46
849.478	55.57
849.77	57.51
850.061	-12.73
850.353	6.21
850.645	1.85
850.936	13.72
851.227	38.41
851.519	38.86
851.81	25.66
852.101	0.06
852.393	20.54
852.684	25.35
852.975	14.38
853.266	-191.13
853.557	-63.48
853.848	-44.19
854.139	-40.97
854.43	-235.4
854.72	1113.76
855.011	-1859.7
855.302	-110.26
855.593	636.2
855.883	-44733.33
856.174	-95.48
856.464	-405.86
856.755	-671.79
857.045	-52.86
857.336	68.73
857.626	-159.6
857.916	27.61
858.206	68.01
858.497	88.5
858.787	105.4
859.077	77.15
859.367	74.37
859.657	63.35
859.947	77.22
860.237	89.63
860.527	-91.2
860.816	45.57
861.106	69.94
861.396	50.07
861.685	-3666.67
861.975	8.22
862.265	96.5
862.554	237.82
862.844	73.88
863.133	-207.34
863.422	-37.25
863.712	29.65
864.001	78.72
864.29	216
864.579	725.49
864.868	-242.11
865.157	216.59
865.446	-52.63
865.735	28.98
866.024	78.96
866.313	76.77
866.602	130
866.891	-36.41
867.179	25.31
867.468	142.86
