Data from T1_Reflection__83__17-57-18-611.txt Node

Date: Wed Jun 02 17:57:18 CEST 2021
User: mabdelazizm
Spectrometer: FLMS18565
Trigger mode: 0
Integration Time (sec): 2.000000E0
Scans to average: 1
Electric dark correction enabled: true
Nonlinearity correction enabled: false
Boxcar width: 12
XAxis mode: Wavelengths
Number of Pixels in Spectrum: 2048
>>>>>Begin Spectral Data<<<<<
179.071	-46.17
179.452	-333.88
179.833	-2703.03
180.214	-95.24
180.595	448.48
180.977	71.48
181.358	-52.68
181.739	-112
182.12	8.41
182.501	14.62
182.882	45.45
183.262	24.54
183.643	235.74
184.024	-11.87
184.405	10.16
184.786	5.94
185.166	-0.5
185.547	-2.8
185.927	-11.81
186.308	-9.75
186.689	-4.92
187.069	2.4
187.449	7.67
187.83	6.94
188.21	3.4
188.59	2.64
188.971	-3.22
189.351	-5.77
189.731	-4.58
190.111	-2.18
190.491	1.23
190.871	-0.82
191.251	0.44
191.631	0.47
192.011	-0.69
192.391	2.94
192.771	4.45
193.151	5.9
193.531	4.73
193.91	3.45
194.29	4.28
194.67	5.33
195.049	6.71
195.429	8.42
195.808	8.7
196.188	8.2
196.567	8.8
196.946	7.71
197.326	8.04
197.705	6.66
198.084	7.19
198.464	8.5
198.843	10.8
199.222	12.99
199.601	12.89
199.98	11.79
200.359	10.95
200.738	11.29
201.117	11.56
201.496	12.39
201.875	11.28
202.254	10.16
202.632	10.09
203.011	10.54
203.39	10.17
203.768	9.33
204.147	9.24
204.525	8.95
204.904	8.11
205.282	8.73
205.661	8.29
206.039	8.05
206.418	8
206.796	7.42
207.174	8.37
207.552	8.33
207.931	8.13
208.309	7.63
208.687	6.92
209.065	6.56
209.443	6.55
209.821	7.1
210.199	6.27
210.577	5.79
210.954	5.28
211.332	5.33
211.71	4.76
212.088	4.75
212.465	3.89
212.843	3.76
213.221	4.16
213.598	3.76
213.976	3.82
214.353	3.17
214.731	2.06
215.108	2.04
215.485	1.46
215.863	1.18
216.24	1.29
216.617	1.59
216.994	0.91
217.371	1.32
217.749	0.78
218.126	0.43
218.503	0.69
218.88	0.4
219.256	0.25
219.633	0.12
220.01	1.01
220.387	1.43
220.764	1.6
221.14	1.97
221.517	1.71
221.894	1.71
222.27	2.12
222.647	2.31
223.023	2.57
223.4	2.58
223.776	3.05
224.153	3.25
224.529	3.38
224.905	3.82
225.282	3.7
225.658	3.6
226.034	3.37
226.41	3.44
226.786	3.36
227.162	3.13
227.538	3.13
227.914	2.88
228.29	2.98
228.666	2.83
229.042	2.7
229.418	2.27
229.793	2.22
230.169	1.96
230.545	1.6
230.92	1.58
231.296	1.72
231.672	1.59
232.047	1.27
232.422	1.11
232.798	0.94
233.173	0.64
233.549	0.67
233.924	0.5
234.299	0.44
234.674	0.44
235.05	0.4
235.425	0.25
235.8	0.29
236.175	0.27
236.55	0.27
236.925	0.14
237.3	0.19
237.675	0.24
238.049	0.41
238.424	0.55
238.799	0.58
239.174	0.48
239.548	0.5
239.923	0.51
240.297	0.52
240.672	0.48
241.046	0.51
241.421	0.57
241.795	0.48
242.17	0.56
242.544	0.6
242.918	0.52
243.293	0.54
243.667	0.46
244.041	0.55
244.415	0.58
244.789	0.8
245.163	0.81
245.537	0.82
245.911	0.85
246.285	0.94
246.659	0.92
247.033	1
247.406	0.88
247.78	0.75
248.154	0.8
248.528	0.81
248.901	0.82
249.275	0.95
249.648	1.01
250.022	0.99
250.395	1.04
250.769	1.04
251.142	1.14
251.515	1.09
251.888	1.17
252.262	1.22
252.635	1.25
253.008	1.2
253.381	1.15
253.754	1.17
254.127	1.06
254.5	1.03
254.873	0.94
255.246	0.97
255.619	0.91
255.992	0.89
256.364	0.75
256.737	0.84
257.11	0.88
257.483	0.85
257.855	0.84
258.228	0.92
258.6	0.88
258.973	0.86
259.345	0.88
259.718	0.79
260.09	0.81
260.462	0.77
260.834	0.78
261.207	0.72
261.579	0.72
261.951	0.69
262.323	0.71
262.695	0.69
263.067	0.59
263.439	0.57
263.811	0.61
264.183	0.63
264.555	0.67
264.927	0.72
265.298	0.69
265.67	0.72
266.042	0.66
266.413	0.64
266.785	0.65
267.156	0.66
267.528	0.59
267.899	0.58
268.271	0.51
268.642	0.45
269.013	0.47
269.385	0.45
269.756	0.48
270.127	0.44
270.498	0.51
270.87	0.53
271.241	0.51
271.612	0.54
271.983	0.59
272.354	0.68
272.724	0.73
273.095	0.77
273.466	0.83
273.837	0.79
274.208	0.82
274.578	0.87
274.949	0.87
275.32	0.82
275.69	0.8
276.061	0.81
276.431	0.83
276.802	0.77
277.172	0.77
277.542	0.72
277.913	0.77
278.283	0.79
278.653	0.76
279.023	0.75
279.394	0.77
279.764	0.76
280.134	0.7
280.504	0.72
280.874	0.63
281.244	0.52
281.614	0.47
281.983	0.44
282.353	0.4
282.723	0.35
283.093	0.33
283.462	0.26
283.832	0.26
284.202	0.28
284.571	0.31
284.941	0.36
285.31	0.36
285.68	0.3
286.049	0.29
286.418	0.3
286.788	0.46
287.157	0.43
287.526	0.4
287.895	0.38
288.264	0.36
288.633	0.38
289.002	0.31
289.371	0.36
289.74	0.28
290.109	0.31
290.478	0.35
290.847	0.42
291.216	0.32
291.585	0.24
291.953	0.2
292.322	0.15
292.691	0.12
293.059	0.11
293.428	0.11
293.796	0.09
294.165	0.08
294.533	0.1
294.901	0.19
295.27	0.27
295.638	0.3
296.006	0.23
296.374	0.3
296.743	0.31
297.111	0.36
297.479	0.38
297.847	0.35
298.215	0.41
298.583	0.32
298.95	0.29
299.318	0.28
299.686	0.26
300.054	0.24
300.422	0.27
300.789	0.36
301.157	0.38
301.525	0.44
301.892	0.43
302.26	0.38
302.627	0.28
302.994	0.31
303.362	0.32
303.729	0.27
304.097	0.3
304.464	0.27
304.831	0.22
305.198	0.15
305.565	0.07
305.932	-0.02
306.299	-0.03
306.666	-0.08
307.033	-0.12
307.4	-0.12
307.767	-0.06
308.134	0.03
308.501	0.08
308.867	0.05
309.234	-0.01
309.601	0.08
309.967	0.02
310.334	0.03
310.701	0.02
311.067	0.04
311.433	0.08
311.8	0.12
312.166	0.1
312.533	0.1
312.899	0.09
313.265	0.03
313.631	0.04
313.997	0.01
314.363	0.07
314.729	0.04
315.096	0.06
315.461	0.07
315.827	0.03
316.193	0.14
316.559	0.09
316.925	0.13
317.291	0.07
317.656	0.05
318.022	0.12
318.388	0.16
318.753	0.09
319.119	0.16
319.484	0.25
319.85	0.31
320.215	0.38
320.581	0.33
320.946	0.35
321.311	0.39
321.676	0.37
322.042	0.38
322.407	0.37
322.772	0.37
323.137	0.42
323.502	0.44
323.867	0.4
324.232	0.42
324.597	0.36
324.962	0.39
325.327	0.36
325.691	0.36
326.056	0.27
326.421	0.33
326.785	0.34
327.15	0.36
327.514	0.35
327.879	0.39
328.243	0.34
328.608	0.21
328.972	0.12
329.337	0.06
329.701	0.06
330.065	0.13
330.429	0.03
330.794	0.04
331.158	0
331.522	0.02
331.886	0.04
332.25	0
332.614	-0.11
332.978	-0.07
333.342	-0.06
333.705	0.03
334.069	0.09
334.433	0.04
334.797	0.06
335.16	0.07
335.524	-0.01
335.887	-0.06
336.251	-0.14
336.614	-0.16
336.978	-0.23
337.341	-0.24
337.705	-0.18
338.068	-0.08
338.431	-0.07
338.794	-0.06
339.158	-0.21
339.521	-0.15
339.884	-0.17
340.247	-0.15
340.61	-0.14
340.973	-0.19
341.336	-0.23
341.699	-0.2
342.062	-0.2
342.424	-0.22
342.787	-0.26
343.15	-0.35
343.512	-0.43
343.875	-0.46
344.238	-0.43
344.6	-0.34
344.963	-0.3
345.325	-0.28
345.688	-0.3
346.05	-0.25
346.412	-0.28
346.775	-0.36
347.137	-0.43
347.499	-0.4
347.861	-0.33
348.223	-0.24
348.585	-0.23
348.947	-0.3
349.309	-0.29
349.671	-0.31
350.033	-0.22
350.395	-0.17
350.757	-0.08
351.118	0.02
351.48	0.04
351.842	-0.02
352.203	-0.03
352.565	0.06
352.927	0.09
353.288	0.14
353.65	0.1
354.011	0.11
354.372	0.15
354.734	0.21
355.095	0.18
355.456	0.19
355.817	0.23
356.179	0.24
356.54	0.26
356.901	0.25
357.262	0.21
357.623	0.22
357.984	0.3
358.345	0.33
358.705	0.32
359.066	0.22
359.427	0.16
359.788	0.06
360.148	0.03
360.509	0.06
360.87	0.11
361.23	0.21
361.591	0.37
361.951	0.37
362.312	0.28
362.672	0.28
363.032	0.16
363.393	0.18
363.753	0.16
364.113	0.21
364.473	0.19
364.833	0.2
365.193	0.15
365.553	0.13
365.913	0.05
366.273	0.15
366.633	0.12
366.993	0.09
367.353	0.09
367.713	0.05
368.072	0.02
368.432	0.06
368.792	0.14
369.151	0.18
369.511	0.14
369.87	0.16
370.23	0.13
370.589	-0.03
370.949	-0.11
371.308	-0.08
371.667	-0.03
372.027	0.04
372.386	0.03
372.745	-0.02
373.104	-0.04
373.463	0.01
373.822	-0.05
374.181	-0.01
374.54	0.06
374.899	0.11
375.258	0.04
375.617	0.02
375.975	-0.01
376.334	-0.11
376.693	-0.09
377.052	0.03
377.41	-0.01
377.769	-0.06
378.127	-0.17
378.486	-0.14
378.844	-0.12
379.202	-0.14
379.561	-0.12
379.919	-0.01
380.277	-0.07
380.636	-0.01
380.994	0.03
381.352	0.04
381.71	0.12
382.068	0.11
382.426	0.16
382.784	0.21
383.142	0.14
383.5	0.13
383.857	0.16
384.215	0.16
384.573	0.23
384.931	0.26
385.288	0.22
385.646	0.12
386.003	0.04
386.361	0.1
386.718	0.17
387.076	0.23
387.433	0.18
387.791	0.22
388.148	0.21
388.505	0.18
388.862	0.1
389.22	0.22
389.577	0.17
389.934	0.23
390.291	0.3
390.648	0.27
391.005	0.22
391.362	0.18
391.718	0.2
392.075	0.15
392.432	0.07
392.789	0.08
393.145	0.15
393.502	0.04
393.859	0.15
394.215	0.15
394.572	0.23
394.928	0.23
395.285	0.19
395.641	0.22
395.997	0.18
396.354	0.19
396.71	0.11
397.066	0.2
397.422	0.31
397.778	0.38
398.134	0.33
398.491	0.37
398.846	0.31
399.202	0.21
399.558	0.2
399.914	0.23
400.27	0.26
400.626	0.22
400.981	0.36
401.337	0.38
401.693	0.36
402.048	0.32
402.404	0.36
402.759	0.31
403.115	0.39
403.47	0.39
403.826	0.37
404.181	0.31
404.536	0.24
404.892	0.33
405.247	0.32
405.602	0.38
405.957	0.24
406.312	0.17
406.667	0.16
407.022	0.2
407.377	0.24
407.732	0.24
408.087	0.18
408.442	0.23
408.796	0.12
409.151	0.08
409.506	0.08
409.86	-0.01
410.215	-0.06
410.57	-0.06
410.924	-0.05
411.279	-0.12
411.633	-0.12
411.987	0
412.342	-0
412.696	0.06
413.05	0.23
413.404	0.17
413.758	0.26
414.113	0.38
414.467	0.4
414.821	0.48
415.175	0.56
415.529	0.58
415.882	0.41
416.236	0.32
416.59	0.38
416.944	0.47
417.298	0.51
417.651	0.59
418.005	0.64
418.358	0.63
418.712	0.8
419.065	0.82
419.419	0.81
419.772	0.89
420.126	1.04
420.479	1.16
420.832	1.11
421.185	1.19
421.539	1.13
421.892	0.98
422.245	1.09
422.598	0.93
422.951	0.94
423.304	1.01
423.657	1.11
424.01	1.13
424.363	1.22
424.715	1.28
425.068	1.37
425.421	1.34
425.773	1.33
426.126	1.43
426.479	1.49
426.831	1.59
427.184	1.66
427.536	1.61
427.889	1.62
428.241	1.67
428.593	1.63
428.945	1.7
429.298	1.62
429.65	1.61
430.002	1.7
430.354	1.8
430.706	1.87
431.058	1.92
431.41	2.08
431.762	2.17
432.114	2.07
432.466	1.99
432.817	1.88
433.169	1.79
433.521	1.97
433.872	2.04
434.224	2.04
434.576	2.11
434.927	1.95
435.279	1.96
435.63	1.86
435.981	1.9
436.333	1.95
436.684	1.99
437.035	2
437.387	2
437.738	1.9
438.089	1.9
438.44	1.88
438.791	1.84
439.142	1.92
439.493	1.97
439.844	2.01
440.195	1.98
440.545	1.91
440.896	1.92
441.247	2.06
441.598	2.12
441.948	2.12
442.299	2.05
442.649	1.93
443	1.95
443.35	1.96
443.701	1.97
444.051	2.05
444.401	2.08
444.752	1.97
445.102	1.88
445.452	1.96
445.802	1.92
446.152	1.89
446.502	2
446.852	1.99
447.202	2.02
447.552	2.07
447.902	2.05
448.252	2.09
448.602	3.69
448.952	3.82
449.301	3.88
449.651	3.98
450.001	3.96
450.35	4.1
450.7	4.04
451.049	4.01
451.399	4.08
451.748	4.18
452.097	4.3
452.447	4.36
452.796	4.33
453.145	4.42
453.494	4.63
453.843	4.72
454.193	4.76
454.542	4.87
454.891	4.96
455.239	4.86
455.588	4.86
455.937	4.99
456.286	5.08
456.635	5.07
456.984	5.02
457.332	3.2
457.681	3.01
458.03	2.97
458.378	3.03
458.727	3.13
459.075	3.18
459.423	3.45
459.772	3.48
460.12	3.5
460.468	3.55
460.817	3.55
461.165	3.54
461.513	3.57
461.861	3.74
462.209	3.83
462.557	3.88
462.905	3.87
463.253	3.95
463.601	4.02
463.949	4.1
464.297	4.14
464.644	4.13
464.992	4.09
465.34	4.15
465.687	4.26
466.035	4.23
466.383	4.3
466.73	4.28
467.078	4.14
467.425	4.09
467.772	4.11
468.12	4.01
468.467	4.07
468.814	4.2
469.161	4.14
469.508	3.98
469.856	3.91
470.203	3.88
470.55	3.76
470.897	3.73
471.243	3.61
471.59	3.53
471.937	3.48
472.284	3.44
472.631	3.42
472.977	3.47
473.324	3.54
473.671	3.49
474.017	3.53
474.364	3.46
474.71	3.47
475.057	3.52
475.403	3.56
475.749	3.6
476.096	3.51
476.442	3.43
476.788	3.43
477.134	3.35
477.48	3.21
477.826	3.17
478.172	3.25
478.518	3.3
478.864	3.3
479.21	3.31
479.556	3.25
479.902	3.31
480.248	3.33
480.593	3.28
480.939	3.29
481.285	3.31
481.63	3.26
481.976	3.27
482.321	3.28
482.667	3.38
483.012	3.51
483.357	3.47
483.703	3.38
484.048	3.49
484.393	3.63
484.738	3.77
485.084	3.84
485.429	3.99
485.774	4.25
486.119	4.44
486.464	4.72
486.808	4.94
487.153	5.19
487.498	5.49
487.843	5.72
488.188	6.04
488.532	6.33
488.877	6.69
489.222	7.11
489.566	7.52
489.911	7.91
490.255	8.43
490.6	8.86
490.944	9.28
491.288	9.6
491.633	9.95
491.977	10.49
492.321	11.17
492.665	11.7
493.009	12.17
493.353	12.64
493.697	13.18
494.041	13.85
494.385	14.37
494.729	15.01
495.073	15.66
495.417	16.37
495.76	16.98
496.104	17.63
496.448	18.3
496.791	18.97
497.135	19.7
497.479	20.47
497.822	21.28
498.165	22.07
498.509	22.91
498.852	23.72
499.196	24.55
499.539	25.49
499.882	26.38
500.225	27.29
500.568	28.21
500.911	28.98
501.254	29.89
501.597	30.82
501.94	31.75
502.283	32.7
502.626	33.56
502.969	34.4
503.312	35.18
503.654	36.03
503.997	36.84
504.34	37.79
504.682	38.67
505.025	39.72
505.367	40.61
505.71	41.34
506.052	42.22
506.395	42.81
506.737	43.62
507.079	44.47
507.421	45.18
507.764	45.99
508.106	46.71
508.448	47.44
508.79	48.18
509.132	48.83
509.474	49.69
509.816	50.27
510.158	50.93
510.499	51.59
510.841	52.3
511.183	52.67
511.525	53.42
511.866	54.1
512.208	54.77
512.549	55.27
512.891	55.77
513.232	56.33
513.574	56.71
513.915	57.16
514.256	57.85
514.598	58.25
514.939	59.03
515.28	59.58
515.621	60.08
515.962	60.61
516.303	61.17
516.644	61.61
516.985	62.13
517.326	62.71
517.667	63.12
518.008	63.15
518.349	63.6
518.69	64.02
519.03	64.26
519.371	64.39
519.712	65
520.052	65.2
520.393	65.63
520.733	65.81
521.074	66.14
521.414	66.74
521.754	67.01
522.095	67.35
522.435	67.69
522.775	67.98
523.115	68.47
523.455	68.65
523.795	68.82
524.135	68.93
524.475	69.16
524.815	69.25
525.155	69.5
525.495	69.62
525.835	69.69
526.175	69.88
526.514	70.39
526.854	70.66
527.194	70.77
527.533	71.18
527.873	71.61
528.212	71.64
528.552	71.97
528.891	71.84
529.23	72.07
529.57	72.16
529.909	71.97
530.248	72.16
530.587	72.35
530.927	72.55
531.266	72.6
531.605	72.65
531.944	72.94
532.283	73.18
532.621	73.41
532.96	73.77
533.299	73.87
533.638	74.17
533.977	74.45
534.315	74.52
534.654	74.68
534.992	74.77
535.331	74.62
535.67	74.74
536.008	75.02
536.346	75.06
536.685	75.19
537.023	75.13
537.361	75.37
537.7	75.52
538.038	75.91
538.376	76.08
538.714	76.2
539.052	76.22
539.39	76.34
539.728	76.62
540.066	76.8
540.404	76.8
540.741	76.87
541.079	76.99
541.417	76.88
541.755	76.95
542.092	76.89
542.43	76.76
542.767	76.81
543.105	76.86
543.442	76.82
543.78	77.04
544.117	77.14
544.454	76.8
544.792	76.74
545.129	76.89
545.466	77.19
545.803	77.54
546.14	77.41
546.477	77.26
546.814	77.4
547.151	77.26
547.488	77.45
547.825	77.34
548.162	77.24
548.499	77.13
548.835	77.05
549.172	77.07
549.509	76.93
549.845	77.11
550.182	77.28
550.518	77.24
550.855	77.24
551.191	77.31
551.528	77.17
551.864	77.25
552.2	77.32
552.537	77.31
552.873	77.63
553.209	77.9
553.545	77.85
553.881	77.81
554.217	77.56
554.553	77.84
554.889	77.87
555.225	77.76
555.561	77.71
555.896	77.55
556.232	77.81
556.568	77.83
556.903	77.98
557.239	77.95
557.575	77.8
557.91	78.12
558.245	78.25
558.581	78.48
558.916	78.53
559.252	78.61
559.587	78.61
559.922	78.88
560.257	79.1
560.592	79.06
560.928	79.07
561.263	78.98
561.598	78.95
561.933	78.89
562.267	78.97
562.602	79.16
562.937	78.94
563.272	79.14
563.607	79.54
563.941	80.01
564.276	80.05
564.611	80.2
564.945	80.28
565.28	80.21
565.614	80.27
565.949	80.25
566.283	80.23
566.617	80.25
566.951	80.13
567.286	80.41
567.62	80.61
567.954	80.83
568.288	80.94
568.622	80.75
568.956	80.64
569.29	80.77
569.624	80.77
569.958	80.86
570.292	80.95
570.626	80.82
570.959	80.92
571.293	81.15
571.627	81.16
571.96	81.02
572.294	80.78
572.627	80.64
572.961	80.51
573.294	80.56
573.627	80.58
573.961	80.57
574.294	80.73
574.627	80.77
574.961	80.8
575.294	80.64
575.627	80.35
575.96	80.23
576.293	80.14
576.626	80.03
576.959	80.08
577.292	80.29
577.624	80.27
577.957	80.27
578.29	80.35
578.623	80.41
578.955	80.46
579.288	80.38
579.62	80.31
579.953	80.37
580.285	80.33
580.618	80.59
580.95	80.79
581.282	80.78
581.615	80.92
581.947	80.99
582.279	81.03
582.611	81.09
582.943	80.99
583.275	80.96
583.607	81.23
583.939	81.47
584.271	81.55
584.603	81.63
584.935	81.63
585.267	81.61
585.598	81.46
585.93	81.59
586.262	81.75
586.593	81.6
586.925	81.43
587.256	81.45
587.588	81.35
587.919	81.3
588.25	81.23
588.582	81.37
588.913	81.28
589.244	81.18
589.575	81.28
589.907	81.08
590.238	81.02
590.569	81.2
590.9	81.25
591.231	81.27
591.562	81.25
591.892	81.2
592.223	81.27
592.554	81.42
592.885	81.22
593.215	81.33
593.546	81.47
593.877	81.43
594.207	81.2
594.538	81.2
594.868	81.16
595.198	81.3
595.529	81.39
595.859	81.5
596.189	81.63
596.52	81.69
596.85	81.71
597.18	81.79
597.51	81.93
597.84	81.99
598.17	82.02
598.5	82.09
598.83	81.96
599.16	81.89
599.489	81.87
599.819	81.82
600.149	81.8
600.479	81.45
600.808	81.3
601.138	81.32
601.467	81.12
601.797	81.02
602.126	81.12
602.456	81.28
602.785	81.3
603.114	81.19
603.443	81.11
603.773	81.07
604.102	81.12
604.431	80.94
604.76	80.65
605.089	80.51
605.418	80.22
605.747	80.06
606.076	79.95
606.405	79.8
606.733	79.78
607.062	79.79
607.391	79.54
607.72	79.45
608.048	79.17
608.377	79.08
608.705	79.28
609.034	79.12
609.362	79.26
609.69	79.44
610.019	79.42
610.347	79.39
610.675	79.27
611.004	79.21
611.332	79.43
611.66	79.56
611.988	79.38
612.316	79.21
612.644	79.17
612.972	79.5
613.3	79.34
613.627	79.49
613.955	79.36
614.283	79.36
614.611	79.68
614.938	79.7
615.266	79.66
615.593	79.76
615.921	79.89
616.248	80.16
616.576	80.08
616.903	80.15
617.23	80.07
617.558	80.04
617.885	80.16
618.212	80.16
618.539	79.81
618.866	79.8
619.193	79.65
619.52	79.33
619.847	79.18
620.174	79.47
620.501	79.88
620.828	79.85
621.155	79.61
621.481	79.47
621.808	79.52
622.135	79.75
622.461	79.85
622.788	79.71
623.114	79.39
623.441	79.4
623.767	79.31
624.093	79.18
624.42	78.93
624.746	79.09
625.072	79.02
625.398	79.65
625.725	79.69
626.051	79.42
626.377	79.95
626.703	79.75
627.029	79.5
627.354	79.68
627.68	80.02
628.006	79.97
628.332	79.12
628.658	78.96
628.983	79.37
629.309	79.64
629.634	80.46
629.96	80.43
630.285	80.48
630.611	80.23
630.936	80.11
631.262	80.38
631.587	80.49
631.912	80.72
632.237	80.86
632.562	81.22
632.887	81.3
633.213	81.48
633.538	81.04
633.863	80.91
634.187	81.45
634.512	80.68
634.837	80.97
635.162	81.29
635.487	80.97
635.811	80.72
636.136	81.32
636.461	82.39
636.785	81.87
637.11	81.95
637.434	81.78
637.758	81.62
638.083	81.52
638.407	82.4
638.731	83.24
639.056	83.65
639.38	84.07
639.704	84.44
640.028	84.71
640.352	84.96
640.676	85.12
641	85.29
641.324	85.05
641.648	84.73
641.972	84.66
642.295	84.05
642.619	84.4
642.943	84.82
643.266	84.3
643.59	84.31
643.913	84.76
644.237	83.75
644.56	83.35
644.884	83.36
645.207	83.48
645.53	83.71
645.854	84.38
646.177	84.64
646.5	83.6
646.823	82.49
647.146	82.51
647.469	82.38
647.792	82.12
648.115	82.3
648.438	82.63
648.761	84.25
649.084	83.14
649.406	82.29
649.729	81.27
650.052	80.76
650.374	80.86
650.697	80.78
651.019	80.57
651.342	80.69
651.664	80.84
651.987	80.56
652.309	80.73
652.631	80.92
652.953	80.56
653.276	80.17
653.598	80.07
653.92	79.75
654.242	79.52
654.564	79.68
654.886	79.86
655.208	79.61
655.53	79.79
655.851	79.7
656.173	79.63
656.495	79.55
656.816	78.45
657.138	78.24
657.46	77.98
657.781	78.98
658.103	79.69
658.424	79.39
658.746	79.57
659.067	79.96
659.388	80.1
659.709	79.55
660.031	80.56
660.352	81.1
660.673	80.63
660.994	81.4
661.315	82.78
661.636	81.96
661.957	81.69
662.278	82.09
662.599	81.2
662.919	80.86
663.24	81.32
663.561	80.43
663.881	80.44
664.202	80.16
664.523	79.98
664.843	80.2
665.164	79.81
665.484	79.69
665.804	79.48
666.125	79.5
666.445	79.19
666.765	78.37
667.085	78.25
667.405	78.55
667.726	80.2
668.046	79.98
668.366	79.06
668.686	79.14
669.005	80.1
669.325	79.78
669.645	81.22
669.965	81.47
670.285	81.05
670.604	81.87
670.924	82.6
671.243	82.24
671.563	82.51
671.882	82.36
672.202	82.25
672.521	81.89
672.841	81.22
673.16	81.51
673.479	81.96
673.798	82.44
674.117	83.23
674.437	83.28
674.756	83.51
675.075	83.79
675.394	84
675.713	81.63
676.031	81.55
676.35	81.95
676.669	81.61
676.988	81.06
677.306	80.54
677.625	80.12
677.944	80.33
678.262	80.84
678.581	80.78
678.899	80.3
679.218	80.86
679.536	80.99
679.854	81.33
680.172	81.99
680.491	82.89
680.809	83.77
681.127	83.17
681.445	82.56
681.763	82.79
682.081	81.69
682.399	81.7
682.717	81.52
683.035	81.9
683.352	81.33
683.67	81.63
683.988	82.34
684.306	82.19
684.623	81.6
684.941	81.65
685.258	82.4
685.576	82.6
685.893	82.05
686.211	82.1
686.528	82.37
686.845	83.04
687.162	83.17
687.48	82.35
687.797	82.17
688.114	81.97
688.431	80.52
688.748	80.25
689.065	80.52
689.382	81.48
689.699	82.18
690.015	82.74
690.332	83.37
690.649	84.56
690.966	84.36
691.282	84.23
691.599	85.26
691.915	84.63
692.232	85.49
692.548	86.43
692.865	86.56
693.181	85.99
693.497	86.24
693.813	87.04
694.13	87.6
694.446	87.83
694.762	87.44
695.078	86.68
695.394	87.51
695.71	87.67
696.026	87.88
696.342	88.61
696.658	89.09
696.973	88.91
697.289	88.93
697.605	87.65
697.92	88.25
698.236	89.21
698.551	87.58
698.867	88.88
699.182	88.82
699.498	87.47
699.813	87.71
700.128	87.76
700.444	87.86
700.759	88.16
701.074	89.02
701.389	88.03
701.704	88.82
702.019	89.32
702.334	88.73
702.649	88.24
702.964	88.37
703.279	87.55
703.594	87.12
703.908	86.39
704.223	86.39
704.538	85.65
704.852	87.39
705.167	87.19
705.481	87.32
705.796	87.04
706.11	86.15
706.425	88.54
706.739	87.6
707.053	87.77
707.368	89.67
707.682	88.6
707.996	89.42
708.31	90.4
708.624	90.44
708.938	89.68
709.252	90.03
709.566	88.11
709.88	86.38
710.193	85.77
710.507	85.33
710.821	86.65
711.135	86.71
711.448	86.48
711.762	85.85
712.075	85.33
712.389	85.8
712.702	85.69
713.015	86.21
713.329	85.32
713.642	86.58
713.955	87.83
714.269	86.79
714.582	85.76
714.895	85.91
715.208	85.07
715.521	85.66
715.834	83.84
716.147	82.58
716.459	82.64
716.772	83.35
717.085	83.36
717.398	83.39
717.71	84.5
718.023	85.59
718.336	87.67
718.648	87.72
718.961	88.92
719.273	90.78
719.585	91.92
719.898	93.19
720.21	92.4
720.522	89.91
720.834	89.27
721.147	89.85
721.459	88.28
721.771	87.34
722.083	86.2
722.395	86.81
722.707	87.26
723.019	85.91
723.33	85.78
723.642	87.59
723.954	87.2
724.265	86.29
724.577	86.45
724.889	85.55
725.2	87.26
725.512	87.25
725.823	86.7
726.135	85.78
726.446	83.89
726.757	81.57
727.068	81.3
727.38	82.15
727.691	81.78
728.002	84.99
728.313	86.78
728.624	86.7
728.935	86.67
729.246	86.99
729.557	86.9
729.867	88.11
730.178	89.32
730.489	88.78
730.8	90.46
731.11	89.93
731.421	89.25
731.731	89.4
732.042	89.31
732.352	89.47
732.663	90.31
732.973	89.32
733.283	88.81
733.594	88.15
733.904	88.15
734.214	88.68
734.524	91.59
734.834	91.34
735.144	90.35
735.454	90.63
735.764	87.92
736.074	86.49
736.384	87.29
736.694	87.87
737.003	88.02
737.313	87.78
737.623	85.91
737.932	85.11
738.242	85.53
738.551	86.57
738.861	86.64
739.17	85.6
739.479	85.81
739.789	86.78
740.098	87.06
740.407	87.47
740.716	89.65
741.025	90.27
741.334	93.73
741.643	94.57
741.952	96.16
742.261	93.71
742.57	93.42
742.879	94.39
743.188	93.6
743.497	94.42
743.805	97.48
744.114	98.31
744.422	98.83
744.731	98.93
745.04	101.04
745.348	103.62
745.656	105.37
745.965	106.34
746.273	102.01
746.581	105.95
746.889	108.22
747.198	110.85
747.506	112.32
747.814	110.81
748.122	109.71
748.43	108.4
748.738	112.29
749.046	112.6
749.353	114.57
749.661	112.62
749.969	110.94
750.277	109.14
750.584	107.45
750.892	109.42
751.199	110.74
751.507	109.63
751.814	107.56
752.122	105.73
752.429	104.22
752.736	102.86
753.044	103.73
753.351	103.64
753.658	101.36
753.965	100.65
754.272	99.22
754.579	97.52
754.886	95.74
755.193	92.9
755.5	90.57
755.807	90.18
756.114	87.47
756.42	84.83
756.727	83.73
757.034	82.63
757.34	84.3
757.647	85.6
757.953	86.36
758.26	83.97
758.566	84.62
758.872	82.58
759.179	82.08
759.485	81.15
759.791	79.65
760.097	77.09
760.403	77.75
760.709	75.61
761.015	74.59
761.321	76.31
761.627	77.91
761.933	76.17
762.239	77.94
762.545	78.88
762.851	81.19
763.156	83.8
763.462	84.79
763.767	87.68
764.073	89.31
764.378	87.22
764.684	86.99
764.989	83.5
765.295	84.18
765.6	87.16
765.905	90.55
766.21	86.85
766.515	88.8
766.821	90.89
767.126	93.19
767.431	95.62
767.736	107.88
768.041	108.55
768.345	108.86
768.65	109.97
768.955	110.93
769.26	111.51
769.564	113.05
769.869	111.12
770.174	105.31
770.478	102.53
770.783	103.16
771.087	100.63
771.391	99.04
771.696	105.57
772	109.82
772.304	114.61
772.608	126.47
772.913	133.66
773.217	135.32
773.521	140.77
773.825	149.31
774.129	154.27
774.433	156.64
774.736	156.3
775.04	164.94
775.344	154.28
775.648	151.02
775.951	154.93
776.255	162.66
776.559	161.64
776.862	158.76
777.166	161.71
777.469	158.31
777.772	171.8
778.076	172.71
778.379	173.11
778.682	162.95
778.985	180.53
779.289	164.58
779.592	172.76
779.895	171.4
780.198	163.36
780.501	151.15
780.804	153.25
781.106	148.25
781.409	146.4
781.712	141.07
782.015	136.07
782.317	124.6
782.62	128.14
782.923	129.09
783.225	135.45
783.527	132.22
783.83	115.17
784.132	125.13
784.435	123.03
784.737	134.5
785.039	146.91
785.341	155.15
785.643	171.68
785.945	157.44
786.248	188.13
786.55	159.41
786.851	147.59
787.153	126.59
787.455	118.39
787.757	122.52
788.059	126.65
788.36	122.31
788.662	115.41
788.964	117.79
789.265	116.94
789.567	113.7
789.868	120.29
790.17	112.07
790.471	106.33
790.772	101.08
791.074	103.11
791.375	118.16
791.676	107.79
791.977	108.83
792.278	87.57
792.579	88.09
792.88	85.29
793.181	84.29
793.482	81.16
793.783	76.31
794.083	79.48
794.384	84.74
794.685	88.01
794.986	89.95
795.286	85.06
795.587	84.62
795.887	87.86
796.188	107.04
796.488	118.11
796.788	113.74
797.089	117.44
797.389	115.62
797.689	128.62
797.989	167.01
798.289	193.62
798.589	183.36
798.889	149.73
799.189	151.18
799.489	132.96
799.789	143.64
800.089	112.26
800.389	86.02
800.688	68.41
800.988	76.23
801.288	104.36
801.587	94.92
801.887	102.31
802.186	84.74
802.486	68.15
802.785	78.74
803.085	92.7
803.384	90.54
803.683	71.52
803.982	45.12
804.281	53.4
804.58	74.41
804.879	88.22
805.178	101.23
805.477	61.05
805.776	50.65
806.075	59.82
806.374	53.91
806.673	86.73
806.971	122.43
807.27	162.11
807.569	183.37
807.867	200.09
808.166	204.21
808.464	199.46
808.763	184.83
809.061	220.01
809.359	218.59
809.658	242.64
809.956	348.61
810.254	298.45
810.552	234.45
810.85	278.8
811.148	295.21
811.446	264.96
811.744	230.73
812.042	210.32
812.34	225.36
812.638	257.9
812.935	263.74
813.233	260.65
813.531	275.18
813.828	260.52
814.126	181.2
814.423	177.8
814.721	168.33
815.018	163.71
815.316	155.69
815.613	168.78
815.91	176.36
816.207	170.74
816.504	142.34
816.802	129.89
817.099	127.81
817.396	119.78
817.693	125.02
817.99	132.1
818.286	125.93
818.583	126.67
818.88	128.65
819.177	121.34
819.473	126.9
819.77	121.48
820.067	100.2
820.363	89.43
820.66	85.73
820.956	93.67
821.252	102.84
821.549	127.45
821.845	112.16
822.141	117.74
822.437	133.41
822.734	172.19
823.03	182.55
823.326	191.03
823.622	205.66
823.918	204.89
824.213	234.04
824.509	264.75
824.805	244.59
825.101	234.41
825.397	209.44
825.692	149.67
825.988	206.01
826.283	206.22
826.579	398.17
826.874	249.83
827.17	223.75
827.465	314.56
827.76	2669.28
828.056	-408.67
828.351	-603.5
828.646	-885.09
828.941	-1274.64
829.236	-1893.54
829.531	-1116.78
829.826	6887.67
830.121	606.97
830.416	741.33
830.711	1769.97
831.006	-1931.98
831.3	-2160
831.595	-1021.41
831.89	-732.55
832.184	-810.89
832.479	-456.58
832.773	-494.97
833.068	-293.78
833.362	-3228.42
833.656	-2599.13
833.951	-6717.24
834.245	-1531.46
834.539	919.76
834.833	889.54
835.127	547.44
835.421	345.42
835.715	323.22
836.009	360.34
836.303	606.19
836.597	1303.53
836.891	680.41
837.185	512.87
837.478	533.73
837.772	387.11
838.066	255.4
838.359	192.79
838.653	206.75
838.946	197.27
839.24	175.74
839.533	143.37
839.826	134.37
840.119	137.8
840.413	150.18
840.706	141.06
840.999	146.21
841.292	139.36
841.585	117.7
841.878	145.88
842.171	122.48
842.464	140.91
842.757	157.51
843.049	156.63
843.342	208.96
843.635	130.01
843.927	97.75
844.22	94.19
844.513	119.02
844.805	117.1
845.098	135.75
845.39	134.35
845.682	143.75
845.975	143.13
846.267	163.61
846.559	250.48
846.851	299.35
847.143	483.43
847.435	348.03
847.727	250.69
848.019	-966.99
848.311	333.55
848.603	654.73
848.895	-2770.91
849.186	213.95
849.478	220.77
849.77	228.12
850.061	113.74
850.353	72.44
850.645	38.41
850.936	-2.72
851.227	276.39
851.519	237.63
851.81	179.31
852.101	-170.04
852.393	109.77
852.684	4285.71
852.975	324.26
853.266	35.59
853.557	263.32
853.848	-70.29
854.139	11.02
854.43	99.3
854.72	162.33
855.011	298.14
855.302	241.61
855.593	269.12
855.883	149.89
856.174	164.96
856.464	228.53
856.755	215.35
857.045	154.74
857.336	173.8
857.626	207.15
857.916	290.12
858.206	212.89
858.497	184.11
858.787	185.99
859.077	176.66
859.367	447.46
859.657	459.13
859.947	550.76
860.237	574.47
860.527	673.9
860.816	607.62
861.106	627.56
861.396	682.7
861.685	531.22
861.975	588.14
862.265	500.95
862.554	420.39
862.844	418.08
863.133	548.25
863.422	625.2
863.712	963.14
864.001	3323.96
864.29	-7694.12
864.579	-4643.32
864.868	-3458.16
865.157	-35155.56
865.446	18615.38
865.735	-3988.19
866.024	19728
866.313	-6301.89
866.602	-600
866.891	-361.47
867.179	-230.41
867.468	-209.22
